%OpenBCI Raw EEG Data
%
%Sample Rate = 200.0 Hz
%First Column = SampleIndex
%Last Column = Timestamp 
%Other Columns = EEG data in microvolts followed by Accel Data (in G) interleaved with Aux Data
0, -13.55, -4.68, 7.01, -37.59, 0.000, 0.000, 0.000, 17:00:33.144
1, -64.57, -51.90, -68.78, -267.74, 0.000, 0.000, 0.000, 17:00:33.163
2, 4.77, -15.18, 7.33, -12.17, 0.000, 0.000, 0.000, 17:00:33.165
3, 53.34, 58.06, 33.66, 230.31, 0.000, 0.000, 0.000, 17:00:33.168
4, 11.48, 8.49, -8.02, -72.79, 0.000, 0.000, 0.000, 17:00:33.170
5, -18.62, -17.10, -42.09, -259.28, 0.000, 0.000, 0.000, 17:00:33.172
6, 15.43, 41.73, 4.87, 16.73, 0.000, 0.000, 0.000, 17:00:33.174
7, 87.60, 57.62, 37.91, 314.30, 0.000, 0.000, 0.000, 17:00:33.184
8, -7.85, 14.91, -16.70, 26.97, 0.000, 0.000, 0.000, 17:00:33.187
9, -12.38, -24.96, -35.22, -248.34, 0.000, 0.000, 0.000, 17:00:33.198
10, 32.30, 12.24, 14.84, 30.03, 0.000, 0.000, 0.000, 17:00:33.199
11, 73.03, 56.37, 47.34, 182.69, 0.000, 0.000, 0.000, 17:00:33.200
12, -7.57, -19.15, -4.99, -28.38, 0.000, 0.000, 0.000, 17:00:33.201
13, -47.96, -43.86, -49.83, -234.19, 0.000, 0.000, 0.000, 17:00:33.219
14, 8.55, 45.88, 24.31, 15.84, 0.000, 0.000, 0.000, 17:00:33.220
15, 46.62, 58.42, 55.25, 313.05, 0.000, 0.000, 0.000, 17:00:33.227
16, -48.54, -12.23, -5.05, -11.88, 0.000, 0.000, 0.000, 17:00:33.228
17, -18.55, -7.11, -35.87, -240.46, 0.000, 0.000, 0.000, 17:00:33.228
18, 0.49, 12.92, 16.27, 35.10, 0.000, 0.000, 0.000, 17:00:33.229
19, 67.22, 61.10, 67.39, 297.67, 0.000, 0.000, 0.000, 17:00:33.243
20, -3.35, -11.34, 11.60, 14.09, 0.000, 0.000, 0.000, 17:00:33.246
21, -57.79, -76.52, -29.60, -268.80, 0.000, 0.000, 0.000, 17:00:33.258
22, 14.54, 22.65, 32.87, -5.18, 0.000, 0.000, 0.000, 17:00:33.259
23, 37.84, 83.69, 61.92, 276.40, 0.000, 0.000, 0.000, 17:00:33.262
24, 25.16, -11.66, -19.72, -16.39, 0.000, 0.000, 0.000, 17:00:33.263
25, -23.50, -32.24, -31.50, -258.54, 0.000, 0.000, 0.000, 17:00:33.285
26, 44.54, 44.31, 30.07, 9.53, 0.000, 0.000, 0.000, 17:00:33.288
27, 71.64, 59.32, 52.72, 169.99, 0.000, 0.000, 0.000, 17:00:33.290
28, 0.37, 13.38, 3.02, 12.68, 0.000, 0.000, 0.000, 17:00:33.291
29, -77.04, -36.96, -75.89, -265.55, 0.000, 0.000, 0.000, 17:00:33.300
30, 38.04, 31.75, -4.30, 43.58, 0.000, 0.000, 0.000, 17:00:33.301
31, 31.75, 63.90, 46.62, 288.30, 0.000, 0.000, 0.000, 17:00:33.304
32, -1.24, -26.64, 16.51, 16.29, 0.000, 0.000, 0.000, 17:00:33.305
33, -20.63, -21.21, -36.42, -234.41, 0.000, 0.000, 0.000, 17:00:33.322
34, 28.63, 39.33, 12.63, -23.84, 0.000, 0.000, 0.000, 17:00:33.326
35, 70.98, 69.61, 67.04, 33.03, 0.000, 0.000, 0.000, 17:00:33.328
36, -21.04, 10.28, -20.63, -34.27, 0.000, 0.000, 0.000, 17:00:33.329
37, -3.27, -54.48, -45.90, -102.08, 0.000, 0.000, 0.000, 17:00:33.332
38, 31.62, 16.65, 22.53, -1.83, 0.000, 0.000, 0.000, 17:00:33.333
39, 26.58, 71.30, 54.11, 271.65, 0.000, 0.000, 0.000, 17:00:33.354
40, 3.78, -23.08, -16.96, -45.64, 0.000, 0.000, 0.000, 17:00:33.355
41, -30.21, -21.41, -36.98, -216.56, 0.000, 0.000, 0.000, 17:00:33.357
42, 30.81, 20.60, 35.59, 15.62, 0.000, 0.000, 0.000, 17:00:33.358
43, 64.06, 21.27, 41.91, 256.35, 0.000, 0.000, 0.000, 17:00:33.368
44, 1.86, -10.31, 0.65, 13.38, 0.000, 0.000, 0.000, 17:00:33.370
45, -29.10, -62.09, -34.11, -248.13, 0.000, 0.000, 0.000, 17:00:33.378
46, 34.93, 25.81, 9.28, 49.27, 0.000, 0.000, 0.000, 17:00:33.379
47, 59.70, 59.90, 50.56, 329.09, 0.000, 0.000, 0.000, 17:00:33.381
48, -14.08, 31.14, 12.78, 35.95, 0.000, 0.000, 0.000, 17:00:33.382
49, -21.12, -10.02, -53.91, -231.66, 0.000, 0.000, 0.000, 17:00:33.393
50, 5.11, 51.92, 22.44, 45.95, 0.000, 0.000, 0.000, 17:00:33.395
51, 59.93, 37.67, 49.45, 80.33, 0.000, 0.000, 0.000, 17:00:33.414
52, -28.40, 1.21, -14.14, -69.18, 0.000, 0.000, 0.000, 17:00:33.415
53, -44.97, -53.25, -65.65, -122.52, 0.000, 0.000, 0.000, 17:00:33.419
54, 41.25, 29.37, 2.98, -8.47, 0.000, 0.000, 0.000, 17:00:33.420
55, 61.08, 59.40, 19.28, 14.71, 0.000, 0.000, 0.000, 17:00:33.431
56, 5.47, 5.47, -17.90, -42.66, 0.000, 0.000, 0.000, 17:00:33.431
57, -40.44, -34.52, -46.43, -132.61, 0.000, 0.000, 0.000, 17:00:33.439
58, 42.76, 46.92, 23.72, 24.66, 0.000, 0.000, 0.000, 17:00:33.441
59, 82.19, 38.86, 39.05, 21.29, 0.000, 0.000, 0.000, 17:00:33.443
60, -17.54, -23.19, -25.39, -73.69, 0.000, 0.000, 0.000, 17:00:33.445
61, -59.51, -76.28, -63.25, -138.97, 0.000, 0.000, 0.000, 17:00:33.453
62, 47.04, 48.66, 39.56, 30.07, 0.000, 0.000, 0.000, 17:00:33.454
63, 82.99, 70.67, 51.44, 77.52, 0.000, 0.000, 0.000, 17:00:33.477
64, -11.08, -1.40, -7.80, -55.67, 0.000, 0.000, 0.000, 17:00:33.485
65, -130.15, -104.57, -82.71, -173.31, 0.000, 0.000, 0.000, 17:00:33.491
66, 50.09, 87.14, 11.12, -17.73, 0.000, 0.000, 0.000, 17:00:33.491
67, 241.17, 268.78, 80.97, 76.59, 0.000, 0.000, 0.000, 17:00:33.493
68, 51.06, 54.69, 21.26, -113.62, 0.000, 0.000, 0.000, 17:00:33.493
69, -70.60, -85.80, -71.73, -364.81, 0.000, 0.000, 0.000, 17:00:33.506
70, 68.39, 84.93, 14.57, -64.60, 0.000, 0.000, 0.000, 17:00:33.507
71, 227.88, 218.97, 105.04, 35.35, 0.000, 0.000, 0.000, 17:00:33.512
72, 15.77, 15.50, -2.18, -71.24, 0.000, 0.000, 0.000, 17:00:33.512
73, -124.89, -135.54, -76.22, -163.33, 0.000, 0.000, 0.000, 17:00:33.517
74, 49.23, 54.07, -8.71, -16.66, 0.000, 0.000, 0.000, 17:00:33.517
75, 207.34, 197.55, 117.78, 73.57, 0.000, 0.000, 0.000, 17:00:33.528
76, -17.60, 44.73, -24.52, -68.33, 0.000, 0.000, 0.000, 17:00:33.529
77, -176.99, -163.74, -118.72, -141.02, 0.000, 0.000, 0.000, 17:00:33.530
78, 29.89, 63.25, 3.98, -72.87, 0.000, 0.000, 0.000, 17:00:33.531
79, 228.31, 185.35, 97.15, 72.80, 0.000, 0.000, 0.000, 17:00:33.544
80, -12.79, -4.75, -21.94, 39.99, 0.000, 0.000, 0.000, 17:00:33.545
81, -121.89, -106.53, -73.72, -163.15, 0.000, 0.000, 0.000, 17:00:33.558
82, 18.74, 14.69, 27.20, 27.13, 0.000, 0.000, 0.000, 17:00:33.559
83, 134.70, 142.95, 97.16, 166.23, 0.000, 0.000, 0.000, 17:00:33.563
84, 14.91, 9.21, -13.14, 7.04, 0.000, 0.000, 0.000, 17:00:33.564
85, -129.91, -97.36, -104.46, -195.97, 0.000, 0.000, 0.000, 17:00:33.575
86, 31.19, 5.68, 44.56, 22.97, 0.000, 0.000, 0.000, 17:00:33.576
87, 122.18, 110.56, 122.21, 323.08, 0.000, 0.000, 0.000, 17:00:33.588
88, -29.71, -46.13, 0.12, 70.33, 0.000, 0.000, 0.000, 17:00:33.588
89, -98.57, -90.52, -62.59, -314.85, 0.000, 0.000, 0.000, 17:00:33.589
90, 16.03, 22.61, 10.14, -18.96, 0.000, 0.000, 0.000, 17:00:33.589
91, 61.31, 78.77, 86.87, 319.62, 0.000, 0.000, 0.000, 17:00:33.602
92, -7.27, -53.30, -29.26, 70.18, 0.000, 0.000, 0.000, 17:00:33.603
93, -87.61, -99.01, -63.91, -140.82, 0.000, 0.000, 0.000, 17:00:33.618
94, 5.85, 16.75, 20.27, 1.60, 0.000, 0.000, 0.000, 17:00:33.619
95, 44.33, 63.56, 89.36, 112.42, 0.000, 0.000, 0.000, 17:00:33.620
96, -25.51, -30.75, 7.57, -63.87, 0.000, 0.000, 0.000, 17:00:33.621
97, -73.08, -94.54, -80.45, -141.25, 0.000, 0.000, 0.000, 17:00:33.632
98, -23.08, 2.11, 23.97, 20.87, 0.000, 0.000, 0.000, 17:00:33.633
99, 76.60, 69.07, 81.15, 175.95, 0.000, 0.000, 0.000, 17:00:33.649
100, -10.73, -24.00, -10.91, 47.17, 0.000, 0.000, 0.000, 17:00:33.650
101, -54.15, -58.59, -71.92, -200.13, 0.000, 0.000, 0.000, 17:00:33.651
102, 41.87, 57.94, 0.64, 23.47, 0.000, 0.000, 0.000, 17:00:33.651
103, 85.21, 86.31, 87.50, 467.95, 0.000, 0.000, 0.000, 17:00:33.663
104, -36.57, -12.43, -14.21, 63.66, 0.000, 0.000, 0.000, 17:00:33.677
105, -64.03, -55.79, -72.78, -368.25, 0.000, 0.000, 0.000, 17:00:33.680
106, 38.58, 74.35, 24.75, 41.36, 0.000, 0.000, 0.000, 17:00:33.680
107, 69.15, 73.14, 88.16, 427.23, 0.000, 0.000, 0.000, 17:00:33.681
108, -0.49, -20.68, -1.77, -8.03, 0.000, 0.000, 0.000, 17:00:33.681
109, -35.57, -51.38, -99.75, -334.65, 0.000, 0.000, 0.000, 17:00:33.692
110, 36.35, 23.98, 29.77, 17.79, 0.000, 0.000, 0.000, 17:00:33.695
111, 89.74, 75.35, 91.21, 450.27, 0.000, 0.000, 0.000, 17:00:33.709
112, 18.82, -17.32, -10.08, 62.44, 0.000, 0.000, 0.000, 17:00:33.711
113, -65.87, -40.40, -103.08, -406.33, 0.000, 0.000, 0.000, 17:00:33.714
114, 26.61, 42.89, 17.41, -12.79, 0.000, 0.000, 0.000, 17:00:33.715
115, 97.96, 58.86, 91.20, 444.37, 0.000, 0.000, 0.000, 17:00:33.723
116, -6.64, -12.87, -6.31, 60.93, 0.000, 0.000, 0.000, 17:00:33.725
117, -96.67, -109.64, -71.26, -201.06, 0.000, 0.000, 0.000, 17:00:33.737
118, 163.38, 161.50, 59.53, -269.39, 0.000, 0.000, 0.000, 17:00:33.739
119, 104.58, 113.49, 91.80, 377.27, 0.000, 0.000, 0.000, 17:00:33.740
120, 8.45, -4.11, -5.72, 46.79, 0.000, 0.000, 0.000, 17:00:33.741
121, -47.17, -37.10, -51.61, -392.47, 0.000, 0.000, 0.000, 17:00:33.755
122, 40.27, 48.40, 51.53, 22.16, 0.000, 0.000, 0.000, 17:00:33.756
123, 117.75, 101.69, 91.33, 360.71, 0.000, 0.000, 0.000, 17:00:33.769
124, -28.04, 11.17, -0.91, 34.41, 0.000, 0.000, 0.000, 17:00:33.769
125, -87.18, -69.57, -50.80, -300.12, 0.000, 0.000, 0.000, 17:00:33.769
126, 70.25, 93.17, 40.87, -23.45, 0.000, 0.000, 0.000, 17:00:33.769
127, 75.97, 97.76, 82.23, 443.28, 0.000, 0.000, 0.000, 17:00:33.788
128, 9.12, 4.16, -0.88, 57.42, 0.000, 0.000, 0.000, 17:00:33.788
129, -62.13, -36.21, -75.16, -331.08, 0.000, 0.000, 0.000, 17:00:33.804
130, 40.10, 50.67, 59.85, 6.50, 0.000, 0.000, 0.000, 17:00:33.807
131, 52.01, 49.40, 113.02, 503.51, 0.000, 0.000, 0.000, 17:00:33.808
132, -6.59, 10.75, -7.90, 28.63, 0.000, 0.000, 0.000, 17:00:33.809
133, -65.30, -39.18, -73.85, -245.95, 0.000, 0.000, 0.000, 17:00:33.813
134, 25.91, 23.82, 29.61, 65.45, 0.000, 0.000, 0.000, 17:00:33.814
135, 75.79, 54.50, 76.42, 273.21, 0.000, 0.000, 0.000, 17:00:33.827
136, 6.66, -16.80, 6.50, 23.88, 0.000, 0.000, 0.000, 17:00:33.828
137, -72.51, -69.94, -51.27, -147.52, 0.000, 0.000, 0.000, 17:00:33.828
138, 47.91, 16.80, 26.98, 51.55, 0.000, 0.000, 0.000, 17:00:33.828
139, 81.19, 47.46, 73.16, 284.75, 0.000, 0.000, 0.000, 17:00:33.843
140, -10.39, -13.41, -10.88, -0.58, 0.000, 0.000, 0.000, 17:00:33.845
141, -54.58, -47.07, -44.67, -323.10, 0.000, 0.000, 0.000, 17:00:33.860
142, 57.41, 48.06, 60.35, 54.56, 0.000, 0.000, 0.000, 17:00:33.862
143, 62.45, 61.05, 107.88, 292.67, 0.000, 0.000, 0.000, 17:00:33.863
144, -27.98, -16.89, -27.17, 51.08, 0.000, 0.000, 0.000, 17:00:33.863
145, -47.95, -55.17, -69.17, -132.41, 0.000, 0.000, 0.000, 17:00:33.875
146, 24.71, 65.94, 21.23, 111.50, 0.000, 0.000, 0.000, 17:00:33.876
147, 73.91, 78.66, 84.03, 277.77, 0.000, 0.000, 0.000, 17:00:33.887
148, -17.06, 4.95, -24.16, 13.39, 0.000, 0.000, 0.000, 17:00:33.888
149, -41.78, -47.10, -66.74, -157.88, 0.000, 0.000, 0.000, 17:00:33.888
150, 45.05, 34.27, 33.52, 77.16, 0.000, 0.000, 0.000, 17:00:33.888
151, 87.67, 91.75, 91.05, 219.46, 0.000, 0.000, 0.000, 17:00:33.905
152, -14.98, 20.07, -0.17, 25.09, 0.000, 0.000, 0.000, 17:00:33.908
153, -45.14, -31.47, -59.20, -149.41, 0.000, 0.000, 0.000, 17:00:33.918
154, 61.99, 35.10, 40.22, 90.37, 0.000, 0.000, 0.000, 17:00:33.919
155, 84.65, 86.71, 104.36, 323.10, 0.000, 0.000, 0.000, 17:00:33.922
156, -35.76, 10.37, -2.59, 30.50, 0.000, 0.000, 0.000, 17:00:33.922
157, -13.63, -48.76, -78.57, -141.68, 0.000, 0.000, 0.000, 17:00:33.934
158, 49.32, 59.78, 40.66, 68.66, 0.000, 0.000, 0.000, 17:00:33.936
159, 73.01, 86.05, 68.66, 90.45, 0.000, 0.000, 0.000, 17:00:33.951
160, 0.72, 24.78, -10.22, -58.99, 0.000, 0.000, 0.000, 17:00:33.952
161, -44.17, -38.58, -21.50, -142.28, 0.000, 0.000, 0.000, 17:00:33.952
162, 55.69, 32.35, 39.02, 25.35, 0.000, 0.000, 0.000, 17:00:33.953
163, 111.00, 109.61, 66.72, 82.60, 0.000, 0.000, 0.000, 17:00:33.964
164, -6.88, -6.60, -11.08, 11.96, 0.000, 0.000, 0.000, 17:00:33.966
165, -80.24, -59.83, -35.45, -99.91, 0.000, 0.000, 0.000, 17:00:33.980
166, 66.23, 60.55, 49.67, 27.00, 0.000, 0.000, 0.000, 17:00:33.981
167, 96.31, 92.22, 102.55, 66.14, 0.000, 0.000, 0.000, 17:00:33.982
168, -23.17, -22.71, 15.19, 41.52, 0.000, 0.000, 0.000, 17:00:33.985
169, -17.96, -44.28, -16.94, -68.06, 0.000, 0.000, 0.000, 17:00:33.995
170, 68.94, 71.96, 40.74, 47.75, 0.000, 0.000, 0.000, 17:00:33.995
171, 53.98, 203.33, 76.16, 162.84, 0.000, 0.000, 0.000, 17:00:34.008
172, 8.31, 3.68, 27.68, 100.53, 0.000, 0.000, 0.000, 17:00:34.025
173, -60.96, -17.03, -17.05, -185.37, 0.000, 0.000, 0.000, 17:00:34.030
174, 38.19, 103.56, 63.90, 127.39, 0.000, 0.000, 0.000, 17:00:34.030
175, 68.39, 98.33, 76.38, 287.75, 0.000, 0.000, 0.000, 17:00:34.031
176, 25.20, 21.58, 3.93, 2.41, 0.000, 0.000, 0.000, 17:00:34.031
177, -16.35, -5.89, -32.53, -189.36, 0.000, 0.000, 0.000, 17:00:34.040
178, 117.04, 107.98, 52.77, 37.09, 0.000, 0.000, 0.000, 17:00:34.040
179, 142.09, 129.01, 107.09, 73.87, 0.000, 0.000, 0.000, 17:00:34.041
180, 4.14, -7.71, 23.79, -28.48, 0.000, 0.000, 0.000, 17:00:34.041
181, -31.20, -45.13, -9.75, -107.07, 0.000, 0.000, 0.000, 17:00:34.063
182, 159.61, 165.05, 63.47, -23.02, 0.000, 0.000, 0.000, 17:00:34.075
183, 314.07, 334.42, 100.00, 56.38, 0.000, 0.000, 0.000, 17:00:34.078
184, 77.91, 89.25, -22.39, -38.03, 0.000, 0.000, 0.000, 17:00:34.081
185, -96.33, -61.86, -39.85, -128.63, 0.000, 0.000, 0.000, 17:00:34.084
186, 136.10, 140.87, 66.64, -48.52, 0.000, 0.000, 0.000, 17:00:34.090
187, 196.01, 247.03, 85.74, 35.62, 0.000, 0.000, 0.000, 17:00:34.093
188, -71.01, 16.90, -15.71, -17.60, 0.000, 0.000, 0.000, 17:00:34.095
189, -95.98, 55.95, -96.04, -77.88, 0.000, 0.000, 0.000, 17:00:34.103
190, 51.32, 66.51, 35.08, 142.08, 0.000, 0.000, 0.000, 17:00:34.105
191, 90.19, 111.08, 94.83, 349.69, 0.000, 0.000, 0.000, 17:00:34.111
192, 1.99, -7.87, 31.92, 79.08, 0.000, 0.000, 0.000, 17:00:34.113
193, -57.97, -39.30, -26.44, -154.57, 0.000, 0.000, 0.000, 17:00:34.114
194, 50.42, 12.80, 40.59, 107.59, 0.000, 0.000, 0.000, 17:00:34.115
195, 84.15, 36.29, 99.74, 401.10, 0.000, 0.000, 0.000, 17:00:34.128
196, -18.59, -45.44, 10.13, 76.56, 0.000, 0.000, 0.000, 17:00:34.129
197, -43.10, -35.39, -58.00, -166.54, 0.000, 0.000, 0.000, 17:00:34.129
198, 26.26, 21.01, 36.97, 83.20, 0.000, 0.000, 0.000, 17:00:34.129
199, 31.27, 57.07, 117.47, 341.49, 0.000, 0.000, 0.000, 17:00:34.143
200, -25.91, -5.41, -10.76, 36.30, 0.000, 0.000, 0.000, 17:00:34.143
0, -27.47, -50.09, -44.10, -153.72, 0.000, 0.000, 0.000, 17:00:34.155
1, 48.03, 39.49, 52.95, 109.61, 0.000, 0.000, 0.000, 17:00:34.159
2, 60.19, 102.11, 96.38, 305.86, 0.000, 0.000, 0.000, 17:00:34.159
3, -4.32, -13.98, 27.31, 34.63, 0.000, 0.000, 0.000, 17:00:34.181
4, -33.61, -54.19, -70.92, -160.66, 0.000, 0.000, 0.000, 17:00:34.183
5, 19.28, 48.54, 57.73, 77.76, 0.000, 0.000, 0.000, 17:00:34.186
6, 52.82, 45.66, 85.49, 276.31, 0.000, 0.000, 0.000, 17:00:34.187
7, -2.44, -28.40, 8.30, 85.93, 0.000, 0.000, 0.000, 17:00:34.189
8, -105.01, -74.65, -46.36, -176.58, 0.000, 0.000, 0.000, 17:00:34.195
9, 58.67, 58.26, 72.17, 70.99, 0.000, 0.000, 0.000, 17:00:34.207
10, 68.89, 53.53, 63.18, 340.62, 0.000, 0.000, 0.000, 17:00:34.207
11, -31.99, -39.34, 6.66, 78.62, 0.000, 0.000, 0.000, 17:00:34.208
12, -56.09, -50.88, -61.16, -92.21, 0.000, 0.000, 0.000, 17:00:34.209
13, 60.85, 57.50, 47.56, 74.01, 0.000, 0.000, 0.000, 17:00:34.218
14, 61.01, 65.38, 81.87, 289.57, 0.000, 0.000, 0.000, 17:00:34.219
15, 1.74, -25.83, -8.03, -49.89, 0.000, 0.000, 0.000, 17:00:34.233
16, -35.84, -11.84, -86.13, -311.32, 0.000, 0.000, 0.000, 17:00:34.234
17, -3.49, 114.62, 55.14, 111.89, 0.000, 0.000, 0.000, 17:00:34.236
18, 53.23, 144.18, 81.04, 465.26, 0.000, 0.000, 0.000, 17:00:34.237
19, -12.35, 78.12, -31.11, -33.51, 0.000, 0.000, 0.000, 17:00:34.248
20, -40.56, 83.40, -67.91, -346.17, 0.000, 0.000, 0.000, 17:00:34.248
21, -32.85, 130.65, 50.93, 100.53, 0.000, 0.000, 0.000, 17:00:34.264
22, -5.40, 213.06, 85.14, 440.55, 0.000, 0.000, 0.000, 17:00:34.265
23, -38.70, 121.19, -31.82, -2.80, 0.000, 0.000, 0.000, 17:00:34.267
24, -109.53, -45.95, -49.53, -172.71, 0.000, 0.000, 0.000, 17:00:34.268
25, 34.46, 236.57, 38.17, -160.18, 0.000, 0.000, 0.000, 17:00:34.277
26, 37.26, 189.19, 73.35, 312.52, 0.000, 0.000, 0.000, 17:00:34.277
27, -84.67, 47.56, -3.78, -10.62, 0.000, 0.000, 0.000, 17:00:34.297
28, -92.03, -46.31, -31.32, -235.88, 0.000, 0.000, 0.000, 17:00:34.297
29, -27.72, 123.06, 43.16, 37.13, 0.000, 0.000, 0.000, 17:00:34.298
30, 39.90, 131.65, 89.85, 337.89, 0.000, 0.000, 0.000, 17:00:34.298
31, -51.85, 37.09, -12.44, -33.39, 0.000, 0.000, 0.000, 17:00:34.309
32, -77.02, -78.66, -22.07, -213.34, 0.000, 0.000, 0.000, 17:00:34.310
33, 49.50, 273.80, 47.72, -208.71, 0.000, 0.000, 0.000, 17:00:34.322
34, 64.24, 242.08, 78.05, 222.86, 0.000, 0.000, 0.000, 17:00:34.322
35, -16.66, 22.01, -4.25, -27.96, 0.000, 0.000, 0.000, 17:00:34.323
36, -91.17, -10.11, -19.98, -310.46, 0.000, 0.000, 0.000, 17:00:34.323
37, -11.89, 102.71, 80.16, 9.45, 0.000, 0.000, 0.000, 17:00:34.339
38, 83.77, 179.30, 124.72, 334.37, 0.000, 0.000, 0.000, 17:00:34.339
39, -48.61, -36.88, -1.10, 40.96, 0.000, 0.000, 0.000, 17:00:34.353
40, -222.27, -4.84, -117.93, -88.44, 0.000, 0.000, 0.000, 17:00:34.353
41, 38.66, 178.31, -23.99, 63.34, 0.000, 0.000, 0.000, 17:00:34.354
42, 216.33, 239.48, 48.55, 196.54, 0.000, 0.000, 0.000, 17:00:34.355
43, 25.42, 1.44, -80.29, 72.04, 0.000, 0.000, 0.000, 17:00:34.373
44, -114.82, -99.16, -125.40, -46.38, 0.000, 0.000, 0.000, 17:00:34.381
45, 57.80, 96.87, 51.69, 61.69, 0.000, 0.000, 0.000, 17:00:34.387
46, 170.97, 177.07, 77.96, 111.39, 0.000, 0.000, 0.000, 17:00:34.388
47, 66.49, -37.95, 17.71, -37.71, 0.000, 0.000, 0.000, 17:00:34.391
48, -214.38, -92.15, -18.79, -129.79, 0.000, 0.000, 0.000, 17:00:34.392
49, -119.62, 110.43, 84.89, 111.06, 0.000, 0.000, 0.000, 17:00:34.398
50, 177.78, 223.50, 107.69, 183.34, 0.000, 0.000, 0.000, 17:00:34.399
51, 47.00, 25.80, 17.32, 4.73, 0.000, 0.000, 0.000, 17:00:34.413
52, -67.26, -106.16, -26.25, -145.47, 0.000, 0.000, 0.000, 17:00:34.414
53, 115.64, 59.71, 49.33, 55.29, 0.000, 0.000, 0.000, 17:00:34.417
54, 208.73, 231.47, 97.89, 150.25, 0.000, 0.000, 0.000, 17:00:34.418
55, 31.38, 19.63, 15.71, 0.78, 0.000, 0.000, 0.000, 17:00:34.432
56, -76.56, -86.46, -62.20, -178.17, 0.000, 0.000, 0.000, 17:00:34.441
57, 122.87, 11.74, 22.41, 58.61, 0.000, 0.000, 0.000, 17:00:34.445
58, 221.70, 109.45, 114.18, 159.24, 0.000, 0.000, 0.000, 17:00:34.451
59, 14.19, -64.40, -1.87, -76.93, 0.000, 0.000, 0.000, 17:00:34.452
60, -118.54, -135.93, -79.27, -98.95, 0.000, 0.000, 0.000, 17:00:34.453
61, 31.54, 68.73, 21.76, 28.48, 0.000, 0.000, 0.000, 17:00:34.458
62, 42.72, 252.03, 80.25, 86.31, 0.000, 0.000, 0.000, 17:00:34.459
63, -48.19, 71.21, 1.32, -74.77, 0.000, 0.000, 0.000, 17:00:34.472
64, -98.86, -96.55, -24.78, -216.30, 0.000, 0.000, 0.000, 17:00:34.473
65, -25.10, 154.15, 88.46, 31.52, 0.000, 0.000, 0.000, 17:00:34.475
66, 51.48, 191.13, 94.43, 181.79, 0.000, 0.000, 0.000, 17:00:34.475
67, -47.05, 14.22, -3.12, -28.66, 0.000, 0.000, 0.000, 17:00:34.492
68, -93.03, -168.24, -63.33, -147.55, 0.000, 0.000, 0.000, 17:00:34.493
69, 43.62, 69.47, 14.24, 76.81, 0.000, 0.000, 0.000, 17:00:34.503
70, 200.88, 167.33, 86.98, 185.42, 0.000, 0.000, 0.000, 17:00:34.503
71, -40.72, -8.27, 29.39, -29.77, 0.000, 0.000, 0.000, 17:00:34.505
72, -45.66, -105.30, -112.09, -159.74, 0.000, 0.000, 0.000, 17:00:34.505
73, 85.29, 26.88, 41.99, 18.90, 0.000, 0.000, 0.000, 17:00:34.518
74, 172.83, 152.92, 79.74, 129.70, 0.000, 0.000, 0.000, 17:00:34.520
75, 9.81, 10.26, -31.24, -84.65, 0.000, 0.000, 0.000, 17:00:34.533
76, -152.99, -111.71, -68.64, -161.49, 0.000, 0.000, 0.000, 17:00:34.533
77, 132.79, 64.05, -12.07, -7.52, 0.000, 0.000, 0.000, 17:00:34.536
78, 183.12, 162.89, 115.90, 148.52, 0.000, 0.000, 0.000, 17:00:34.537
79, 63.04, -31.59, 11.91, -69.78, 0.000, 0.000, 0.000, 17:00:34.551
80, -83.85, -63.80, -72.10, -153.95, 0.000, 0.000, 0.000, 17:00:34.552
81, 100.97, 75.75, -5.24, 37.30, 0.000, 0.000, 0.000, 17:00:34.562
82, 181.96, 173.25, 56.43, 163.69, 0.000, 0.000, 0.000, 17:00:34.563
83, 8.89, -19.72, -30.76, -34.97, 0.000, 0.000, 0.000, 17:00:34.563
84, -101.17, -160.27, -70.09, -96.80, 0.000, 0.000, 0.000, 17:00:34.563
85, 59.10, 2.53, -7.03, 46.60, 0.000, 0.000, 0.000, 17:00:34.579
86, 174.77, 130.34, 82.95, 166.65, 0.000, 0.000, 0.000, 17:00:34.580
87, 25.51, -5.94, -4.79, -17.36, 0.000, 0.000, 0.000, 17:00:34.592
88, -97.37, -129.31, -73.52, -128.38, 0.000, 0.000, 0.000, 17:00:34.592
89, 83.51, 30.08, 21.69, 13.66, 0.000, 0.000, 0.000, 17:00:34.592
90, 208.95, 148.16, 68.66, 163.99, 0.000, 0.000, 0.000, 17:00:34.592
91, 25.30, -18.55, -7.07, -25.33, 0.000, 0.000, 0.000, 17:00:34.613
92, -97.60, -126.24, -73.30, -154.79, 0.000, 0.000, 0.000, 17:00:34.617
93, 94.35, 34.43, -8.24, 23.55, 0.000, 0.000, 0.000, 17:00:34.622
94, 192.43, 116.40, 64.34, 164.63, 0.000, 0.000, 0.000, 17:00:34.622
95, -70.04, 29.77, -30.07, -15.72, 0.000, 0.000, 0.000, 17:00:34.623
96, -109.68, -148.40, -64.25, -114.03, 0.000, 0.000, 0.000, 17:00:34.623
97, -18.26, 75.06, 12.36, 63.33, 0.000, 0.000, 0.000, 17:00:34.637
98, 7.62, 200.80, 66.78, 179.27, 0.000, 0.000, 0.000, 17:00:34.638
99, -65.55, -30.07, -36.80, 33.70, 0.000, 0.000, 0.000, 17:00:34.653
100, -97.20, -132.09, -77.23, -127.91, 0.000, 0.000, 0.000, 17:00:34.654
101, 66.41, 19.35, 38.92, 14.80, 0.000, 0.000, 0.000, 17:00:34.655
102, 112.57, 171.58, 101.82, 175.26, 0.000, 0.000, 0.000, 17:00:34.656
103, 37.60, -59.83, 5.98, -1.20, 0.000, 0.000, 0.000, 17:00:34.678
104, -96.93, -145.63, -30.92, -150.41, 0.000, 0.000, 0.000, 17:00:34.679
105, 66.51, 37.68, 68.93, 27.50, 0.000, 0.000, 0.000, 17:00:34.683
106, 178.82, 140.22, 104.11, 158.50, 0.000, 0.000, 0.000, 17:00:34.683
107, 30.99, -53.76, 3.44, -25.94, 0.000, 0.000, 0.000, 17:00:34.684
108, -113.20, -145.60, -76.88, -162.45, 0.000, 0.000, 0.000, 17:00:34.685
109, 62.83, -2.08, 115.72, 3.28, 0.000, 0.000, 0.000, 17:00:34.705
110, 100.06, 138.44, 213.86, 131.92, 0.000, 0.000, 0.000, 17:00:34.708
111, -7.83, -46.72, 44.60, -49.62, 0.000, 0.000, 0.000, 17:00:34.713
112, -121.92, -135.04, -58.81, -157.66, 0.000, 0.000, 0.000, 17:00:34.713
113, 50.02, -10.87, 63.68, 17.55, 0.000, 0.000, 0.000, 17:00:34.713
114, 82.16, 219.73, 114.53, 119.48, 0.000, 0.000, 0.000, 17:00:34.713
115, -29.83, 44.30, -3.52, -106.21, 0.000, 0.000, 0.000, 17:00:34.727
116, -115.64, -127.74, -110.57, -158.64, 0.000, 0.000, 0.000, 17:00:34.728
117, -42.56, 191.84, -6.91, -8.99, 0.000, 0.000, 0.000, 17:00:34.742
118, 79.84, 398.80, 122.14, 43.96, 0.000, 0.000, 0.000, 17:00:34.746
119, -87.86, 119.48, -15.79, -59.69, 0.000, 0.000, 0.000, 17:00:34.747
120, -167.76, -105.00, -80.80, -141.12, 0.000, 0.000, 0.000, 17:00:34.747
121, 41.28, 175.58, 21.46, -54.76, 0.000, 0.000, 0.000, 17:00:34.759
122, 59.83, 335.24, 115.77, 9.54, 0.000, 0.000, 0.000, 17:00:34.760
123, -73.06, 89.72, -22.35, -95.86, 0.000, 0.000, 0.000, 17:00:34.774
124, -115.24, -111.51, -67.57, -146.27, 0.000, 0.000, 0.000, 17:00:34.774
125, 16.86, 28.38, 54.47, -28.28, 0.000, 0.000, 0.000, 17:00:34.788
126, 127.57, 30.11, 164.82, 94.54, 0.000, 0.000, 0.000, 17:00:34.789
127, 7.74, -106.24, 20.49, -78.90, 0.000, 0.000, 0.000, 17:00:34.792
128, -106.97, -183.51, -72.82, -94.15, 0.000, 0.000, 0.000, 17:00:34.792
129, 60.84, -13.36, 65.57, -1.55, 0.000, 0.000, 0.000, 17:00:34.804
130, 119.95, 70.46, 172.56, 91.79, 0.000, 0.000, 0.000, 17:00:34.805
131, -4.03, -68.10, 11.19, -62.94, 0.000, 0.000, 0.000, 17:00:34.808
132, -104.01, -140.66, -73.51, -126.47, 0.000, 0.000, 0.000, 17:00:34.809
133, -26.32, 135.82, 24.41, -42.74, 0.000, 0.000, 0.000, 17:00:34.819
134, 61.97, 326.29, 63.94, 42.16, 0.000, 0.000, 0.000, 17:00:34.820
135, -72.06, 45.89, -4.13, -36.38, 0.000, 0.000, 0.000, 17:00:34.832
136, -123.60, -116.20, -93.13, -110.96, 0.000, 0.000, 0.000, 17:00:34.832
137, -3.09, 140.46, 13.82, -26.75, 0.000, 0.000, 0.000, 17:00:34.833
138, 64.17, 266.86, 97.76, 58.56, 0.000, 0.000, 0.000, 17:00:34.833
139, -48.45, 34.22, -9.61, -45.88, 0.000, 0.000, 0.000, 17:00:34.849
140, -140.76, -205.55, -121.30, -103.54, 0.000, 0.000, 0.000, 17:00:34.850
141, -2.71, 49.85, -14.47, -18.64, 0.000, 0.000, 0.000, 17:00:34.868
142, -7.92, 92.49, 59.35, 106.65, 0.000, 0.000, 0.000, 17:00:34.869
143, -87.04, -80.67, -22.20, 3.82, 0.000, 0.000, 0.000, 17:00:34.870
144, -152.28, -142.00, -103.80, -107.32, 0.000, 0.000, 0.000, 17:00:34.870
145, -46.27, 21.19, -6.06, 66.74, 0.000, 0.000, 0.000, 17:00:34.877
146, -13.52, 118.25, 54.42, 164.44, 0.000, 0.000, 0.000, 17:00:34.877
147, -111.05, -29.75, -35.11, -11.45, 0.000, 0.000, 0.000, 17:00:34.892
148, -148.40, -123.50, -113.68, -135.31, 0.000, 0.000, 0.000, 17:00:34.893
149, -32.08, 90.92, -3.11, -47.76, 0.000, 0.000, 0.000, 17:00:34.893
150, 60.91, 307.37, 71.53, 71.22, 0.000, 0.000, 0.000, 17:00:34.893
151, -69.24, 23.94, -52.65, -82.10, 0.000, 0.000, 0.000, 17:00:34.911
152, -89.15, -147.33, -105.95, -159.08, 0.000, 0.000, 0.000, 17:00:34.911
153, 10.36, 115.76, -1.95, -40.64, 0.000, 0.000, 0.000, 17:00:34.923
154, 18.01, 173.91, 86.49, 34.18, 0.000, 0.000, 0.000, 17:00:34.924
155, -41.10, -84.23, -1.75, -37.59, 0.000, 0.000, 0.000, 17:00:34.926
156, -103.46, -212.06, -85.12, -101.76, 0.000, 0.000, 0.000, 17:00:34.926
157, -15.11, -41.79, 6.32, -2.74, 0.000, 0.000, 0.000, 17:00:34.939
158, 113.27, 58.44, 82.51, 105.14, 0.000, 0.000, 0.000, 17:00:34.939
159, -15.29, -114.52, -23.49, -33.38, 0.000, 0.000, 0.000, 17:00:34.963
160, -117.40, -183.32, -71.93, -158.83, 0.000, 0.000, 0.000, 17:00:34.971
161, 41.46, -40.59, 16.53, -9.02, 0.000, 0.000, 0.000, 17:00:34.980
162, 132.78, 48.79, 85.85, 96.50, 0.000, 0.000, 0.000, 17:00:34.980
163, -6.40, -89.10, -48.61, -85.85, 0.000, 0.000, 0.000, 17:00:34.982
164, -105.07, -209.06, -110.65, -128.13, 0.000, 0.000, 0.000, 17:00:34.982
165, 43.00, -46.40, -9.41, 14.52, 0.000, 0.000, 0.000, 17:00:34.983
166, 138.12, 43.50, 56.19, 107.43, 0.000, 0.000, 0.000, 17:00:34.983
167, -21.75, -91.03, -47.87, -33.21, 0.000, 0.000, 0.000, 17:00:34.985
168, -112.35, -164.72, -111.38, -136.62, 0.000, 0.000, 0.000, 17:00:34.986
169, 11.39, -19.24, -6.34, 0.73, 0.000, 0.000, 0.000, 17:00:35.003
170, 106.75, 39.38, 52.26, 111.64, 0.000, 0.000, 0.000, 17:00:35.004
171, -7.99, -121.83, -60.68, -25.08, 0.000, 0.000, 0.000, 17:00:35.028
172, -98.66, -185.12, -123.51, -116.86, 0.000, 0.000, 0.000, 17:00:35.032
173, 30.29, -25.93, -24.81, 25.43, 0.000, 0.000, 0.000, 17:00:35.033
174, 129.00, 95.46, 30.05, 122.89, 0.000, 0.000, 0.000, 17:00:35.035
175, -13.16, -74.18, -57.06, -7.41, 0.000, 0.000, 0.000, 17:00:35.037
176, -132.16, -159.02, -111.80, -95.28, 0.000, 0.000, 0.000, 17:00:35.038
177, 41.70, -3.26, 4.40, 28.84, 0.000, 0.000, 0.000, 17:00:35.046
178, 129.96, 65.08, 56.35, 112.66, 0.000, 0.000, 0.000, 17:00:35.054
179, -7.26, -62.78, -11.66, -33.46, 0.000, 0.000, 0.000, 17:00:35.063
180, -103.47, -186.81, -86.51, -120.47, 0.000, 0.000, 0.000, 17:00:35.064
181, 23.05, -49.44, 15.89, 40.86, 0.000, 0.000, 0.000, 17:00:35.084
182, 118.03, 51.04, 81.26, 121.34, 0.000, 0.000, 0.000, 17:00:35.085
183, -21.70, -80.99, -18.88, -30.67, 0.000, 0.000, 0.000, 17:00:35.091
184, -101.26, -159.87, -65.79, -136.47, 0.000, 0.000, 0.000, 17:00:35.092
185, 11.48, -38.69, 42.50, -9.38, 0.000, 0.000, 0.000, 17:00:35.097
186, 105.49, 50.57, 140.91, 87.24, 0.000, 0.000, 0.000, 17:00:35.098
187, -49.86, -73.55, 23.31, -52.95, 0.000, 0.000, 0.000, 17:00:35.099
188, -99.17, -188.09, -79.44, -145.22, 0.000, 0.000, 0.000, 17:00:35.099
189, 18.79, -27.54, 35.78, 4.92, 0.000, 0.000, 0.000, 17:00:35.112
190, 79.93, 65.84, 103.01, 78.35, 0.000, 0.000, 0.000, 17:00:35.112
191, -39.89, -79.25, 16.02, -59.11, 0.000, 0.000, 0.000, 17:00:35.113
192, -121.00, -182.84, -75.00, -146.73, 0.000, 0.000, 0.000, 17:00:35.113
193, -10.43, -39.55, 36.54, -29.51, 0.000, 0.000, 0.000, 17:00:35.118
194, 94.82, 25.88, 128.92, 55.72, 0.000, 0.000, 0.000, 17:00:35.118
195, -42.33, -87.97, -14.91, -71.94, 0.000, 0.000, 0.000, 17:00:35.133
196, -144.85, -185.05, -85.39, -141.11, 0.000, 0.000, 0.000, 17:00:35.134
197, 8.41, -25.26, 11.01, -11.95, 0.000, 0.000, 0.000, 17:00:35.151
198, 106.72, 74.67, 76.59, 82.43, 0.000, 0.000, 0.000, 17:00:35.152
199, -34.80, -65.72, -32.52, -78.62, 0.000, 0.000, 0.000, 17:00:35.164
200, -158.86, -147.84, -34.76, -162.70, 0.000, 0.000, 0.000, 17:00:35.165
0, -29.27, -7.37, 6.42, -50.64, 0.000, 0.000, 0.000, 17:00:35.167
1, 62.81, 68.35, 90.32, 48.61, 0.000, 0.000, 0.000, 17:00:35.170
2, -73.74, 52.98, -31.34, -101.57, 0.000, 0.000, 0.000, 17:00:35.171
3, -111.65, -127.17, -95.63, -160.28, 0.000, 0.000, 0.000, 17:00:35.171
4, 39.94, 20.48, -9.83, -5.43, 0.000, 0.000, 0.000, 17:00:35.171
5, 87.23, 154.02, 45.01, 87.96, 0.000, 0.000, 0.000, 17:00:35.177
6, -44.31, -0.77, 1.93, -53.14, 0.000, 0.000, 0.000, 17:00:35.178
7, -146.04, -180.28, -47.48, -155.89, 0.000, 0.000, 0.000, 17:00:35.193
8, 26.45, -28.90, 6.76, 10.07, 0.000, 0.000, 0.000, 17:00:35.194
9, 97.65, 48.27, 41.56, 84.06, 0.000, 0.000, 0.000, 17:00:35.208
10, -48.02, -68.63, -22.02, -44.27, 0.000, 0.000, 0.000, 17:00:35.209
11, -124.13, -132.84, -37.28, -131.02, 0.000, 0.000, 0.000, 17:00:35.210
12, -26.02, 77.71, 71.05, -35.38, 0.000, 0.000, 0.000, 17:00:35.211
13, 73.32, 207.90, 67.01, 53.64, 0.000, 0.000, 0.000, 17:00:35.226
14, -27.98, -26.68, -1.12, -40.94, 0.000, 0.000, 0.000, 17:00:35.227
15, -104.53, -133.81, -129.98, -89.06, 0.000, 0.000, 0.000, 17:00:35.237
16, 15.82, 64.68, -1.59, 11.32, 0.000, 0.000, 0.000, 17:00:35.238
17, 119.69, 219.51, 31.02, 63.04, 0.000, 0.000, 0.000, 17:00:35.238
18, -9.58, -29.34, -58.22, -51.03, 0.000, 0.000, 0.000, 17:00:35.238
19, -86.40, -194.05, -88.91, -107.80, 0.000, 0.000, 0.000, 17:00:35.253
20, -2.00, -19.64, 25.60, -8.87, 0.000, 0.000, 0.000, 17:00:35.253
21, 120.71, 70.90, 82.38, 58.26, 0.000, 0.000, 0.000, 17:00:35.267
22, -80.70, -80.26, 22.90, -57.53, 0.000, 0.000, 0.000, 17:00:35.269
23, -161.69, -179.21, 13.13, -181.30, 0.000, 0.000, 0.000, 17:00:35.269
24, -40.60, -38.26, 98.08, -29.41, 0.000, 0.000, 0.000, 17:00:35.270
25, 87.24, 58.20, 109.47, 62.71, 0.000, 0.000, 0.000, 17:00:35.283
26, -92.65, 37.43, 84.88, -114.86, 0.000, 0.000, 0.000, 17:00:35.283
27, -151.67, -91.77, -19.39, -167.42, 0.000, 0.000, 0.000, 17:00:35.303
28, 16.38, 103.17, -6.78, -20.07, 0.000, 0.000, 0.000, 17:00:35.303
29, 86.92, 290.83, 60.07, 68.38, 0.000, 0.000, 0.000, 17:00:35.303
30, 91.05, 136.37, -29.44, -146.27, 0.000, 0.000, 0.000, 17:00:35.303
31, 6.26, 16.77, -93.97, -251.39, 0.000, 0.000, 0.000, 17:00:35.312
32, -0.05, 221.47, -67.21, -68.85, 0.000, 0.000, 0.000, 17:00:35.312
33, -2.83, -28.77, 348.02, 6.26, 0.000, 0.000, 0.000, 17:00:35.328
34, -27.70, -472.86, 507.80, -123.75, 0.000, 0.000, 0.000, 17:00:35.328
35, -121.00, -128.65, -191.18, -79.60, 0.000, 0.000, 0.000, 17:00:35.330
36, 4.21, 27.28, -28.15, 53.98, 0.000, 0.000, 0.000, 17:00:35.331
37, 7.84, 135.58, 79.76, 194.44, 0.000, 0.000, 0.000, 17:00:35.343
38, -70.82, -25.55, -64.75, 49.25, 0.000, 0.000, 0.000, 17:00:35.343
39, -127.92, -120.71, -135.79, -77.22, 0.000, 0.000, 0.000, 17:00:35.358
40, -89.96, 223.82, -81.23, 29.17, 0.000, 0.000, 0.000, 17:00:35.359
41, 22.25, 371.23, 36.46, 113.27, 0.000, 0.000, 0.000, 17:00:35.359
42, -54.17, 27.60, -72.39, -21.99, 0.000, 0.000, 0.000, 17:00:35.359
43, -115.38, -152.34, -165.10, -101.53, 0.000, 0.000, 0.000, 17:00:35.381
44, -24.60, 87.52, -62.26, 7.98, 0.000, 0.000, 0.000, 17:00:35.382
45, 67.67, 279.73, 64.63, 100.95, 0.000, 0.000, 0.000, 17:00:35.387
46, -48.54, 44.80, -55.46, -16.17, 0.000, 0.000, 0.000, 17:00:35.396
47, -132.18, -115.57, -137.43, -103.23, 0.000, 0.000, 0.000, 17:00:35.398
48, 1.44, 95.96, -43.49, 45.99, 0.000, 0.000, 0.000, 17:00:35.401
49, 69.54, 319.42, 34.37, 120.90, 0.000, 0.000, 0.000, 17:00:35.402
50, -81.09, 54.90, -66.10, 2.03, 0.000, 0.000, 0.000, 17:00:35.402
51, -119.34, -172.03, -116.09, -100.35, 0.000, 0.000, 0.000, 17:00:35.419
52, -10.21, 20.53, 35.80, 25.61, 0.000, 0.000, 0.000, 17:00:35.419
53, 71.73, 185.24, 65.18, 112.34, 0.000, 0.000, 0.000, 17:00:35.421
54, -55.19, -8.59, -36.95, -32.12, 0.000, 0.000, 0.000, 17:00:35.423
55, -103.70, -187.20, -100.44, -102.13, 0.000, 0.000, 0.000, 17:00:35.433
56, 25.79, 26.02, 20.71, -17.74, 0.000, 0.000, 0.000, 17:00:35.434
57, 80.94, 204.10, 103.41, 21.71, 0.000, 0.000, 0.000, 17:00:35.448
58, -50.63, -26.74, -51.34, -68.71, 0.000, 0.000, 0.000, 17:00:35.448
59, -109.18, -179.11, -128.47, -104.61, 0.000, 0.000, 0.000, 17:00:35.461
60, 2.54, 9.37, 2.87, -24.08, 0.000, 0.000, 0.000, 17:00:35.462
61, 80.37, 200.50, 71.30, 11.21, 0.000, 0.000, 0.000, 17:00:35.465
62, -75.35, 0.05, -84.73, -65.73, 0.000, 0.000, 0.000, 17:00:35.466
63, -164.10, -162.27, -132.30, -105.04, 0.000, 0.000, 0.000, 17:00:35.477
64, 6.23, 56.21, 0.87, -44.34, 0.000, 0.000, 0.000, 17:00:35.478
65, 74.08, 217.94, 97.77, 31.81, 0.000, 0.000, 0.000, 17:00:35.480
66, -63.91, 3.47, -47.76, -58.38, 0.000, 0.000, 0.000, 17:00:35.481
67, -137.50, -139.04, -141.10, -89.77, 0.000, 0.000, 0.000, 17:00:35.492
68, -11.06, 101.10, -60.26, -28.13, 0.000, 0.000, 0.000, 17:00:35.496
69, -8.02, 345.26, 8.61, -3.01, 0.000, 0.000, 0.000, 17:00:35.511
70, -118.44, 122.62, -111.57, -54.57, 0.000, 0.000, 0.000, 17:00:35.512
71, -140.07, -149.70, -121.15, -114.66, 0.000, 0.000, 0.000, 17:00:35.514
72, -48.99, 74.93, -15.61, -30.06, 0.000, 0.000, 0.000, 17:00:35.515
73, 33.69, 319.51, 69.53, -18.90, 0.000, 0.000, 0.000, 17:00:35.522
74, -37.12, 54.71, -32.41, -77.42, 0.000, 0.000, 0.000, 17:00:35.523
75, -26.18, -195.58, -103.83, -80.96, 0.000, 0.000, 0.000, 17:00:35.538
76, 74.77, -46.00, 6.96, 48.32, 0.000, 0.000, 0.000, 17:00:35.539
77, 34.33, 116.37, 105.92, 154.80, 0.000, 0.000, 0.000, 17:00:35.548
78, -31.51, -45.21, -23.20, 5.93, 0.000, 0.000, 0.000, 17:00:35.550
79, -44.70, -215.72, -130.22, -84.00, 0.000, 0.000, 0.000, 17:00:35.554
80, 3.68, -24.52, 5.85, 2.03, 0.000, 0.000, 0.000, 17:00:35.554
81, 31.00, 173.92, 137.83, 100.85, 0.000, 0.000, 0.000, 17:00:35.568
82, -32.57, 48.98, -27.90, -13.07, 0.000, 0.000, 0.000, 17:00:35.569
83, -50.47, -214.36, -125.81, -99.31, 0.000, 0.000, 0.000, 17:00:35.570
84, -5.61, -26.50, 36.51, 57.81, 0.000, 0.000, 0.000, 17:00:35.570
85, 8.29, 105.01, 121.46, 224.58, 0.000, 0.000, 0.000, 17:00:35.585
86, -61.73, -38.60, -19.51, 76.73, 0.000, 0.000, 0.000, 17:00:35.589
87, -88.42, -143.49, -119.95, -76.74, 0.000, 0.000, 0.000, 17:00:35.600
88, -29.15, 16.71, 27.46, 72.82, 0.000, 0.000, 0.000, 17:00:35.601
89, 9.78, 99.93, 108.75, 174.54, 0.000, 0.000, 0.000, 17:00:35.601
90, -42.30, -58.07, -23.11, 5.20, 0.000, 0.000, 0.000, 17:00:35.601
91, -70.60, -196.97, -116.50, -119.87, 0.000, 0.000, 0.000, 17:00:35.622
92, -8.84, -36.38, 1.11, 21.13, 0.000, 0.000, 0.000, 17:00:35.624
93, 15.11, 107.10, 117.86, 182.15, 0.000, 0.000, 0.000, 17:00:35.628
94, -45.62, -55.63, -19.37, 1.40, 0.000, 0.000, 0.000, 17:00:35.628
95, -71.57, -182.01, -104.62, -119.16, 0.000, 0.000, 0.000, 17:00:35.629
96, -15.80, -20.39, 5.95, 40.64, 0.000, 0.000, 0.000, 17:00:35.630
97, 8.32, 117.24, 103.28, 174.24, 0.000, 0.000, 0.000, 17:00:35.653
98, -48.79, -47.93, -35.34, 20.97, 0.000, 0.000, 0.000, 17:00:35.653
99, -87.92, -171.25, -94.37, -96.86, 0.000, 0.000, 0.000, 17:00:35.658
100, -21.09, 12.29, 20.62, -25.87, 0.000, 0.000, 0.000, 17:00:35.658
101, -23.30, 211.13, 97.63, 56.76, 0.000, 0.000, 0.000, 17:00:35.659
102, -53.29, -3.13, -11.10, -67.27, 0.000, 0.000, 0.000, 17:00:35.661
103, -67.25, -252.18, -109.81, -115.19, 0.000, 0.000, 0.000, 17:00:35.673
104, 5.83, -42.73, 26.88, -35.88, 0.000, 0.000, 0.000, 17:00:35.673
105, 0.83, 101.96, 113.76, 176.45, 0.000, 0.000, 0.000, 17:00:35.694
106, -36.03, -57.62, -27.93, 14.08, 0.000, 0.000, 0.000, 17:00:35.694
107, -54.45, -208.60, -116.12, -158.92, 0.000, 0.000, 0.000, 17:00:35.694
108, -25.75, -44.31, 33.37, 49.77, 0.000, 0.000, 0.000, 17:00:35.694
109, -12.86, 117.72, 86.69, 164.79, 0.000, 0.000, 0.000, 17:00:35.703
110, -37.35, -43.75, -32.28, 0.81, 0.000, 0.000, 0.000, 17:00:35.703
111, -35.22, -189.36, -98.78, -145.39, 0.000, 0.000, 0.000, 17:00:35.717
112, -9.91, -34.39, 14.54, 52.18, 0.000, 0.000, 0.000, 17:00:35.718
113, 14.14, 110.30, 88.66, 200.04, 0.000, 0.000, 0.000, 17:00:35.718
114, 20.35, -73.12, -55.44, -27.60, 0.000, 0.000, 0.000, 17:00:35.719
115, 36.64, -243.55, -124.74, -165.70, 0.000, 0.000, 0.000, 17:00:35.733
116, 47.70, -57.31, 0.59, -59.19, 0.000, 0.000, 0.000, 17:00:35.733
117, -11.32, 121.96, 74.98, 168.51, 0.000, 0.000, 0.000, 17:00:35.750
118, -38.67, 6.91, -49.49, -3.02, 0.000, 0.000, 0.000, 17:00:35.750
119, -50.28, -193.72, -126.02, -164.39, 0.000, 0.000, 0.000, 17:00:35.752
120, -29.79, 12.49, 18.89, 71.32, 0.000, 0.000, 0.000, 17:00:35.753
121, -30.62, 166.97, 106.70, 200.38, 0.000, 0.000, 0.000, 17:00:35.766
122, -30.23, -49.57, -27.77, -0.98, 0.000, 0.000, 0.000, 17:00:35.766
123, -48.61, -200.39, -63.38, -150.70, 0.000, 0.000, 0.000, 17:00:35.782
124, 8.71, 8.94, 11.45, 29.84, 0.000, 0.000, 0.000, 17:00:35.782
125, 11.44, 168.14, 100.14, 190.48, 0.000, 0.000, 0.000, 17:00:35.792
126, -27.66, -16.59, -36.40, 16.31, 0.000, 0.000, 0.000, 17:00:35.792
127, -58.74, -180.30, -77.55, -118.26, 0.000, 0.000, 0.000, 17:00:35.792
128, 34.46, -8.97, -0.22, 34.83, 0.000, 0.000, 0.000, 17:00:35.793
129, 69.86, 125.15, 45.52, 184.12, 0.000, 0.000, 0.000, 17:00:35.807
130, -29.34, -52.90, -23.10, -19.54, 0.000, 0.000, 0.000, 17:00:35.807
131, -68.13, -181.62, -77.46, -140.41, 0.000, 0.000, 0.000, 17:00:35.808
132, -8.05, -27.97, 3.47, 13.00, 0.000, 0.000, 0.000, 17:00:35.808
133, 61.87, 157.26, 40.85, 197.58, 0.000, 0.000, 0.000, 17:00:35.823
134, -18.62, -45.20, -8.18, -27.31, 0.000, 0.000, 0.000, 17:00:35.824
135, -35.09, -181.03, -88.39, -138.74, 0.000, 0.000, 0.000, 17:00:35.839
136, 23.80, -23.14, -10.49, 31.61, 0.000, 0.000, 0.000, 17:00:35.839
137, 60.72, 128.84, 59.56, 176.80, 0.000, 0.000, 0.000, 17:00:35.840
138, -21.79, -51.57, -57.94, -10.02, 0.000, 0.000, 0.000, 17:00:35.841
139, -35.24, -185.96, -101.88, -159.75, 0.000, 0.000, 0.000, 17:00:35.853
140, 4.24, 16.22, 24.94, 40.31, 0.000, 0.000, 0.000, 17:00:35.853
141, 13.96, 165.82, 137.47, 144.70, 0.000, 0.000, 0.000, 17:00:35.868
142, -2.61, -9.02, -27.83, 21.23, 0.000, 0.000, 0.000, 17:00:35.869
143, -33.38, -194.25, -112.29, -143.02, 0.000, 0.000, 0.000, 17:00:35.873
144, 14.28, 15.79, 12.40, 35.00, 0.000, 0.000, 0.000, 17:00:35.873
145, 14.30, 154.40, 137.57, 193.50, 0.000, 0.000, 0.000, 17:00:35.882
146, -20.31, 1.33, -4.72, -7.55, 0.000, 0.000, 0.000, 17:00:35.883
147, -48.06, -205.25, -109.21, -145.46, 0.000, 0.000, 0.000, 17:00:35.899
148, -10.53, 59.77, 58.65, -13.97, 0.000, 0.000, 0.000, 17:00:35.899
149, -4.53, 243.97, 135.57, 140.03, 0.000, 0.000, 0.000, 17:00:35.906
150, -38.78, -0.76, 1.73, 2.00, 0.000, 0.000, 0.000, 17:00:35.906
151, -47.36, -184.31, -108.21, -144.21, 0.000, 0.000, 0.000, 17:00:35.913
152, -9.55, -12.55, 36.11, 31.76, 0.000, 0.000, 0.000, 17:00:35.913
153, 4.37, 172.02, 125.11, 200.45, 0.000, 0.000, 0.000, 17:00:35.928
154, -31.02, 30.28, -1.09, -30.68, 0.000, 0.000, 0.000, 17:00:35.928
155, -70.58, -141.50, -144.30, -129.90, 0.000, 0.000, 0.000, 17:00:35.930
156, -138.08, 88.80, -17.13, 66.61, 0.000, 0.000, 0.000, 17:00:35.931
157, -16.28, 199.84, -13.56, 258.83, 0.000, 0.000, 0.000, 17:00:35.942
158, -26.92, -4.08, -59.87, 12.78, 0.000, 0.000, 0.000, 17:00:35.942
159, -90.37, -184.51, -102.17, -129.99, 0.000, 0.000, 0.000, 17:00:35.959
160, -3.30, 8.74, -2.65, 23.99, 0.000, 0.000, 0.000, 17:00:35.959
161, 50.78, 171.86, 50.50, 180.06, 0.000, 0.000, 0.000, 17:00:35.960
162, -29.98, -36.74, -42.80, 20.26, 0.000, 0.000, 0.000, 17:00:35.962
163, -65.76, -172.78, -96.42, -173.90, 0.000, 0.000, 0.000, 17:00:35.973
164, 48.34, -5.66, -7.01, 27.50, 0.000, 0.000, 0.000, 17:00:35.974
165, 67.99, 164.81, 34.75, 169.98, 0.000, 0.000, 0.000, 17:00:35.987
166, 5.98, -38.66, -21.69, -9.96, 0.000, 0.000, 0.000, 17:00:35.987
167, -25.91, -190.22, -75.63, -196.17, 0.000, 0.000, 0.000, 17:00:35.989
168, 150.09, -65.65, 98.50, -50.94, 0.000, 0.000, 0.000, 17:00:35.989
169, 313.40, 51.46, 153.42, 97.85, 0.000, 0.000, 0.000, 17:00:36.002
170, 84.50, -80.23, 33.42, -59.02, 0.000, 0.000, 0.000, 17:00:36.002
171, -30.62, -241.79, -44.51, -207.71, 0.000, 0.000, 0.000, 17:00:36.017
172, 64.94, -36.41, 28.24, -4.87, 0.000, 0.000, 0.000, 17:00:36.018
173, 110.02, 161.00, 103.62, 151.55, 0.000, 0.000, 0.000, 17:00:36.019
174, -10.31, -20.39, -32.22, -30.10, 0.000, 0.000, 0.000, 17:00:36.019
175, -77.04, -177.07, -93.84, -179.69, 0.000, 0.000, 0.000, 17:00:36.032
176, 39.26, -4.08, -11.98, -5.80, 0.000, 0.000, 0.000, 17:00:36.033
177, 51.70, 151.67, 67.61, 184.99, 0.000, 0.000, 0.000, 17:00:36.047
178, -7.18, -19.30, 6.30, 4.19, 0.000, 0.000, 0.000, 17:00:36.048
179, -82.12, -204.31, -81.30, -167.03, 0.000, 0.000, 0.000, 17:00:36.063
180, -10.71, -22.80, 27.39, 11.75, 0.000, 0.000, 0.000, 17:00:36.063
181, 27.80, 192.74, 66.72, 182.29, 0.000, 0.000, 0.000, 17:00:36.064
182, -73.01, 34.96, -81.66, -25.04, 0.000, 0.000, 0.000, 17:00:36.065
183, -156.16, -149.05, -160.81, -143.26, 0.000, 0.000, 0.000, 17:00:36.079
184, -79.47, 99.20, -97.32, 104.33, 0.000, 0.000, 0.000, 17:00:36.080
185, -6.02, 307.05, -6.17, 243.93, 0.000, 0.000, 0.000, 17:00:36.080
186, -70.68, 102.04, -27.84, 16.20, 0.000, 0.000, 0.000, 17:00:36.080
187, -145.36, 72.95, -83.15, -165.68, 0.000, 0.000, 0.000, 17:00:36.093
188, -95.90, 137.41, -27.11, 33.42, 0.000, 0.000, 0.000, 17:00:36.094
189, -41.39, 226.87, 151.36, 167.55, 0.000, 0.000, 0.000, 17:00:36.107
190, -74.90, 33.56, 12.70, -32.64, 0.000, 0.000, 0.000, 17:00:36.108
191, -43.59, -205.45, -113.11, -152.99, 0.000, 0.000, 0.000, 17:00:36.109
192, 23.49, -10.37, 30.38, -1.47, 0.000, 0.000, 0.000, 17:00:36.109
193, 48.47, 229.89, 169.35, 146.25, 0.000, 0.000, 0.000, 17:00:36.125
194, 37.78, -71.33, -28.20, -19.35, 0.000, 0.000, 0.000, 17:00:36.125
195, -56.52, -215.00, -72.22, -160.77, 0.000, 0.000, 0.000, 17:00:36.138
196, 63.44, 11.54, 51.16, 10.05, 0.000, 0.000, 0.000, 17:00:36.139
197, 163.48, 177.69, 149.47, 138.71, 0.000, 0.000, 0.000, 17:00:36.142
198, 16.57, -28.46, 1.58, -16.68, 0.000, 0.000, 0.000, 17:00:36.142
199, -58.47, -219.90, -69.48, -164.50, 0.000, 0.000, 0.000, 17:00:36.153
200, 55.12, -18.54, 85.62, 0.38, 0.000, 0.000, 0.000, 17:00:36.153
0, 158.52, 171.68, 157.17, 205.78, 0.000, 0.000, 0.000, 17:00:36.154
1, 27.50, -38.65, 36.42, 15.46, 0.000, 0.000, 0.000, 17:00:36.168
2, 156.25, -468.73, 147.25, -217.42, 0.000, 0.000, 0.000, 17:00:36.169
3, 119.22, -69.06, 84.91, -33.24, 0.000, 0.000, 0.000, 17:00:36.183
4, 128.02, 246.41, 179.69, 88.09, 0.000, 0.000, 0.000, 17:00:36.183
5, 49.10, 18.26, -64.12, 11.50, 0.000, 0.000, 0.000, 17:00:36.184
6, -35.55, -178.83, -75.59, -145.00, 0.000, 0.000, 0.000, 17:00:36.185
7, 33.63, 35.86, 47.15, 16.37, 0.000, 0.000, 0.000, 17:00:36.202
8, 172.28, 225.09, 144.70, 63.78, 0.000, 0.000, 0.000, 17:00:36.202
9, 44.40, -11.21, 12.03, -42.69, 0.000, 0.000, 0.000, 17:00:36.212
10, -31.25, -170.18, -118.02, -152.01, 0.000, 0.000, 0.000, 17:00:36.212
11, 108.81, -7.73, -18.08, -18.45, 0.000, 0.000, 0.000, 17:00:36.213
12, 232.80, 243.33, 57.21, 64.27, 0.000, 0.000, 0.000, 17:00:36.213
13, 41.84, 20.02, -27.55, -44.68, 0.000, 0.000, 0.000, 17:00:36.228
14, -46.48, -253.52, -80.17, -149.21, 0.000, 0.000, 0.000, 17:00:36.229
15, 66.12, 57.40, -2.07, -16.84, 0.000, 0.000, 0.000, 17:00:36.242
16, 186.38, 295.11, 69.29, 64.05, 0.000, 0.000, 0.000, 17:00:36.243
17, 52.09, 35.18, -49.10, -54.15, 0.000, 0.000, 0.000, 17:00:36.244
18, -30.76, -234.59, -66.90, -149.81, 0.000, 0.000, 0.000, 17:00:36.244
19, 82.55, 35.80, -3.13, -28.87, 0.000, 0.000, 0.000, 17:00:36.257
20, 155.45, 326.84, 56.88, 82.36, 0.000, 0.000, 0.000, 17:00:36.258
21, 33.53, 23.98, -47.12, -47.60, 0.000, 0.000, 0.000, 17:00:36.272
22, -60.71, -244.05, -90.30, -119.89, 0.000, 0.000, 0.000, 17:00:36.273
23, 82.57, 9.04, -11.82, 10.39, 0.000, 0.000, 0.000, 17:00:36.275
24, 181.83, 187.41, 60.18, 185.67, 0.000, 0.000, 0.000, 17:00:36.275
25, 27.27, -47.57, -58.30, 8.41, 0.000, 0.000, 0.000, 17:00:36.287
26, -51.75, -226.87, -83.13, -156.09, 0.000, 0.000, 0.000, 17:00:36.288
27, 75.03, 6.88, 5.37, 49.71, 0.000, 0.000, 0.000, 17:00:36.303
28, 154.88, 214.37, 60.72, 198.83, 0.000, 0.000, 0.000, 17:00:36.303
29, -13.25, -9.41, -41.00, -9.79, 0.000, 0.000, 0.000, 17:00:36.304
30, -57.81, -189.45, -91.23, -146.80, 0.000, 0.000, 0.000, 17:00:36.304
31, 50.12, -12.47, -0.81, 59.94, 0.000, 0.000, 0.000, 17:00:36.326
32, 57.08, 193.03, 53.87, 235.12, 0.000, 0.000, 0.000, 17:00:36.329
33, 5.92, -48.96, -42.43, 13.12, 0.000, 0.000, 0.000, 17:00:36.333
34, -62.84, -198.24, -91.45, -142.82, 0.000, 0.000, 0.000, 17:00:36.334
35, 61.54, 47.29, -13.06, -8.63, 0.000, 0.000, 0.000, 17:00:36.335
36, 150.83, 340.16, 53.01, 78.81, 0.000, 0.000, 0.000, 17:00:36.336
37, 26.02, 56.45, -53.05, -63.79, 0.000, 0.000, 0.000, 17:00:36.349
38, -57.70, -209.35, -81.75, -144.13, 0.000, 0.000, 0.000, 17:00:36.350
39, 59.31, 24.02, 1.62, -7.59, 0.000, 0.000, 0.000, 17:00:36.367
40, 238.02, 98.92, 70.12, 111.09, 0.000, 0.000, 0.000, 17:00:36.369
41, 11.46, 0.99, -44.54, -51.83, 0.000, 0.000, 0.000, 17:00:36.371
42, -119.79, -57.77, -91.13, -155.33, 0.000, 0.000, 0.000, 17:00:36.375
43, 67.30, 46.66, 5.78, 2.49, 0.000, 0.000, 0.000, 17:00:36.380
44, 183.87, 252.77, 67.16, 97.76, 0.000, 0.000, 0.000, 17:00:36.381
45, 14.00, 94.25, -32.13, -34.56, 0.000, 0.000, 0.000, 17:00:36.394
46, -74.29, -206.76, -70.75, -140.54, 0.000, 0.000, 0.000, 17:00:36.395
47, 72.94, 54.66, 8.62, -12.29, 0.000, 0.000, 0.000, 17:00:36.396
48, 155.63, 341.40, 65.49, 76.11, 0.000, 0.000, 0.000, 17:00:36.397
49, 11.30, 56.05, 2.00, -35.73, 0.000, 0.000, 0.000, 17:00:36.408
50, -75.03, -237.83, -106.92, -122.56, 0.000, 0.000, 0.000, 17:00:36.411
51, 42.98, 37.33, 15.80, 1.06, 0.000, 0.000, 0.000, 17:00:36.423
52, 134.26, 200.79, 212.17, 64.21, 0.000, 0.000, 0.000, 17:00:36.424
53, -1.36, -31.70, 32.64, -47.61, 0.000, 0.000, 0.000, 17:00:36.424
54, -44.95, -209.13, -123.49, -100.48, 0.000, 0.000, 0.000, 17:00:36.425
55, 74.29, 40.35, -8.87, -12.65, 0.000, 0.000, 0.000, 17:00:36.437
56, 156.80, 270.11, 120.15, 69.78, 0.000, 0.000, 0.000, 17:00:36.437
57, -2.89, 17.97, -19.56, -25.91, 0.000, 0.000, 0.000, 17:00:36.453
58, -109.67, -210.13, -94.14, -109.34, 0.000, 0.000, 0.000, 17:00:36.453
59, -8.98, -1.23, 40.33, -19.54, 0.000, 0.000, 0.000, 17:00:36.455
60, 0.95, 263.74, 169.02, 81.90, 0.000, 0.000, 0.000, 17:00:36.456
61, -80.05, 15.76, -0.61, -39.78, 0.000, 0.000, 0.000, 17:00:36.468
62, -89.83, -203.73, -85.51, -94.30, 0.000, 0.000, 0.000, 17:00:36.469
63, -31.63, 14.53, 51.72, 5.84, 0.000, 0.000, 0.000, 17:00:36.483
64, 4.30, 270.51, 128.75, 59.99, 0.000, 0.000, 0.000, 17:00:36.484
65, -68.94, 26.97, -3.80, -22.65, 0.000, 0.000, 0.000, 17:00:36.485
66, -102.06, -220.53, -105.73, -105.39, 0.000, 0.000, 0.000, 17:00:36.486
67, -35.22, -29.04, 41.29, 52.04, 0.000, 0.000, 0.000, 17:00:36.505
68, -23.76, 135.16, 164.50, 183.33, 0.000, 0.000, 0.000, 17:00:36.506
69, -72.32, -44.10, 15.87, 33.81, 0.000, 0.000, 0.000, 17:00:36.512
70, -87.86, -194.20, -111.76, -110.19, 0.000, 0.000, 0.000, 17:00:36.512
71, -24.93, -7.56, 33.42, 41.96, 0.000, 0.000, 0.000, 17:00:36.512
72, 43.26, 228.58, 92.09, 131.52, 0.000, 0.000, 0.000, 17:00:36.513
73, -0.60, 25.65, -36.13, -30.07, 0.000, 0.000, 0.000, 17:00:36.533
74, -86.95, -243.00, -83.78, -113.36, 0.000, 0.000, 0.000, 17:00:36.533
75, 13.13, -3.00, 17.33, -8.26, 0.000, 0.000, 0.000, 17:00:36.543
76, 108.80, 232.82, 102.46, 82.93, 0.000, 0.000, 0.000, 17:00:36.544
77, 6.69, -7.22, -29.06, -3.28, 0.000, 0.000, 0.000, 17:00:36.546
78, -92.71, -222.77, -74.72, -76.53, 0.000, 0.000, 0.000, 17:00:36.546
79, 21.04, 21.85, 24.24, 1.93, 0.000, 0.000, 0.000, 17:00:36.559
80, 103.38, 276.47, 106.37, 92.13, 0.000, 0.000, 0.000, 17:00:36.559
81, -33.84, 12.95, -50.57, -11.68, 0.000, 0.000, 0.000, 17:00:36.573
82, -90.44, -221.42, -88.05, -78.83, 0.000, 0.000, 0.000, 17:00:36.573
83, 35.20, 31.85, 28.81, -16.05, 0.000, 0.000, 0.000, 17:00:36.574
84, 73.99, 281.20, 85.41, 64.86, 0.000, 0.000, 0.000, 17:00:36.574
85, -22.55, -1.23, -5.23, -43.72, 0.000, 0.000, 0.000, 17:00:36.587
86, -80.94, -226.98, -85.87, -92.11, 0.000, 0.000, 0.000, 17:00:36.588
87, 22.14, 42.92, 29.23, 14.20, 0.000, 0.000, 0.000, 17:00:36.603
88, 101.19, 273.35, 78.06, 79.49, 0.000, 0.000, 0.000, 17:00:36.603
89, -33.47, 15.18, -39.61, -16.62, 0.000, 0.000, 0.000, 17:00:36.604
90, -88.80, -233.92, -92.03, -77.73, 0.000, 0.000, 0.000, 17:00:36.605
91, 34.08, 24.09, 4.75, -23.62, 0.000, 0.000, 0.000, 17:00:36.617
92, 105.71, 280.43, 60.11, 45.28, 0.000, 0.000, 0.000, 17:00:36.618
93, -10.78, 14.71, -43.09, -28.73, 0.000, 0.000, 0.000, 17:00:36.632
94, -91.65, -192.87, -79.90, -88.77, 0.000, 0.000, 0.000, 17:00:36.633
95, 22.43, 0.99, 13.24, 41.90, 0.000, 0.000, 0.000, 17:00:36.633
96, 109.18, 193.75, 46.87, 186.06, 0.000, 0.000, 0.000, 17:00:36.633
97, -23.50, 8.66, -29.01, 23.12, 0.000, 0.000, 0.000, 17:00:36.648
98, -65.22, -138.10, -83.89, -105.28, 0.000, 0.000, 0.000, 17:00:36.648
99, 155.94, 38.08, 20.44, 84.67, 0.000, 0.000, 0.000, 17:00:36.662
100, 112.16, 155.31, 68.60, 210.99, 0.000, 0.000, 0.000, 17:00:36.663
101, -4.21, -48.57, -25.00, 19.48, 0.000, 0.000, 0.000, 17:00:36.663
102, -143.97, -194.47, -18.88, -109.25, 0.000, 0.000, 0.000, 17:00:36.663
103, 52.59, 7.32, 108.09, 31.41, 0.000, 0.000, 0.000, 17:00:36.678
104, 160.68, 293.63, 161.94, 81.94, 0.000, 0.000, 0.000, 17:00:36.678
105, -4.33, 2.95, 66.90, -60.17, 0.000, 0.000, 0.000, 17:00:36.693
106, -111.37, -243.43, 12.56, -91.46, 0.000, 0.000, 0.000, 17:00:36.694
107, 55.18, 13.45, 68.37, 16.56, 0.000, 0.000, 0.000, 17:00:36.695
108, 206.32, 278.30, 103.90, 78.51, 0.000, 0.000, 0.000, 17:00:36.695
109, 3.21, -7.61, 32.38, -19.08, 0.000, 0.000, 0.000, 17:00:36.707
110, -88.49, -187.56, -139.22, -73.71, 0.000, 0.000, 0.000, 17:00:36.708
111, 67.51, -3.00, 63.24, 16.04, 0.000, 0.000, 0.000, 17:00:36.723
112, 211.23, 136.45, 124.62, 200.96, 0.000, 0.000, 0.000, 17:00:36.723
113, 55.20, -31.13, -68.83, 37.24, 0.000, 0.000, 0.000, 17:00:36.725
114, -83.67, -189.69, -95.69, -122.01, 0.000, 0.000, 0.000, 17:00:36.725
115, 69.89, -5.90, -1.51, 41.35, 0.000, 0.000, 0.000, 17:00:36.738
116, 207.44, 228.97, 52.70, 122.99, 0.000, 0.000, 0.000, 17:00:36.739
117, 6.01, 6.25, -32.25, -24.51, 0.000, 0.000, 0.000, 17:00:36.753
118, -118.52, -189.88, -52.58, -117.99, 0.000, 0.000, 0.000, 17:00:36.754
119, 56.35, 0.52, -46.25, 75.74, 0.000, 0.000, 0.000, 17:00:36.754
120, 173.64, 176.73, 70.66, 216.94, 0.000, 0.000, 0.000, 17:00:36.754
121, 10.28, -23.00, -18.27, 37.47, 0.000, 0.000, 0.000, 17:00:36.767
122, -87.22, -184.93, -66.85, -136.79, 0.000, 0.000, 0.000, 17:00:36.768
123, 66.52, -9.14, 9.61, 14.16, 0.000, 0.000, 0.000, 17:00:36.782
124, 203.00, 183.49, 41.16, 166.57, 0.000, 0.000, 0.000, 17:00:36.783
125, 19.55, -32.14, -18.60, -5.30, 0.000, 0.000, 0.000, 17:00:36.783
126, -102.55, -178.11, -107.45, -117.10, 0.000, 0.000, 0.000, 17:00:36.784
127, 43.19, 2.88, 44.47, 42.00, 0.000, 0.000, 0.000, 17:00:36.797
128, 169.74, 147.46, 132.13, 155.33, 0.000, 0.000, 0.000, 17:00:36.798
129, 4.37, 0.04, -1.39, 16.98, 0.000, 0.000, 0.000, 17:00:36.813
130, -129.40, -131.88, -105.20, -70.28, 0.000, 0.000, 0.000, 17:00:36.813
131, 22.44, 68.19, 83.55, 46.65, 0.000, 0.000, 0.000, 17:00:36.814
132, 105.61, 186.92, 326.11, 129.05, 0.000, 0.000, 0.000, 17:00:36.814
133, -96.10, 49.77, 184.87, 32.97, 0.000, 0.000, 0.000, 17:00:36.827
134, -317.80, -37.73, 92.76, -3.04, 0.000, 0.000, 0.000, 17:00:36.828
135, -42.51, 111.07, 147.57, 59.61, 0.000, 0.000, 0.000, 17:00:36.844
136, 72.37, 111.89, 556.81, 56.83, 0.000, 0.000, 0.000, 17:00:36.844
137, -247.64, 23.69, 455.43, 34.22, 0.000, 0.000, 0.000, 17:00:36.846
138, -451.44, 74.50, 194.49, 36.68, 0.000, 0.000, 0.000, 17:00:36.847
139, -36.42, 98.97, 68.85, 75.99, 0.000, 0.000, 0.000, 17:00:36.860
140, 155.65, 53.76, 413.70, 73.40, 0.000, 0.000, 0.000, 17:00:36.861
141, 19.16, 3.85, 36.70, -0.69, 0.000, 0.000, 0.000, 17:00:36.872
142, -122.02, 15.21, -319.31, -18.96, 0.000, 0.000, 0.000, 17:00:36.873
143, 70.81, 79.98, -18.75, -0.30, 0.000, 0.000, 0.000, 17:00:36.874
144, 215.93, 99.26, 359.76, 2.72, 0.000, 0.000, 0.000, 17:00:36.874
145, 30.69, 35.50, -17.33, -26.78, 0.000, 0.000, 0.000, 17:00:36.887
146, -168.30, 42.23, -382.59, -2.90, 0.000, 0.000, 0.000, 17:00:36.888
147, -33.40, 137.62, 51.99, 45.21, 0.000, 0.000, 0.000, 17:00:36.902
148, 63.77, 149.09, 567.47, 74.72, 0.000, 0.000, 0.000, 17:00:36.903
149, -84.38, 65.72, 169.75, -12.73, 0.000, 0.000, 0.000, 17:00:36.904
150, -356.44, 88.07, -64.41, 10.20, 0.000, 0.000, 0.000, 17:00:36.904
151, -89.36, 92.58, 264.75, 16.95, 0.000, 0.000, 0.000, 17:00:36.918
152, 221.50, 18.03, 422.46, -17.15, 0.000, 0.000, 0.000, 17:00:36.918
153, 2.83, -19.22, 55.61, -42.04, 0.000, 0.000, 0.000, 17:00:36.933
154, -322.14, 79.49, -113.73, -5.84, 0.000, 0.000, 0.000, 17:00:36.934
155, -69.18, 62.94, 223.43, 21.07, 0.000, 0.000, 0.000, 17:00:36.935
156, 264.59, -29.02, 407.93, 3.55, 0.000, 0.000, 0.000, 17:00:36.936
157, 38.67, -62.50, 38.97, -0.46, 0.000, 0.000, 0.000, 17:00:36.950
158, -272.41, 12.21, -111.29, 53.21, 0.000, 0.000, 0.000, 17:00:36.951
159, -68.17, 14.09, 233.07, 76.21, 0.000, 0.000, 0.000, 17:00:36.963
160, 255.32, -63.94, 447.67, 10.51, 0.000, 0.000, 0.000, 17:00:36.963
161, 15.23, -68.97, 13.97, 25.87, 0.000, 0.000, 0.000, 17:00:36.964
162, -292.43, 29.13, -137.58, 77.63, 0.000, 0.000, 0.000, 17:00:36.964
163, -57.23, 48.80, 264.18, 61.79, 0.000, 0.000, 0.000, 17:00:36.978
164, 299.14, -51.63, 471.49, -13.39, 0.000, 0.000, 0.000, 17:00:36.979
165, 40.84, -43.08, 20.26, -6.45, 0.000, 0.000, 0.000, 17:00:36.993
166, -235.29, 31.59, -205.86, 39.70, 0.000, 0.000, 0.000, 17:00:36.994
167, -58.14, 12.56, 232.74, 54.33, 0.000, 0.000, 0.000, 17:00:36.995
168, 246.37, -54.69, 504.61, 11.09, 0.000, 0.000, 0.000, 17:00:36.995
169, 43.93, -40.41, 27.78, 7.77, 0.000, 0.000, 0.000, 17:00:37.007
170, -197.72, 2.89, -297.66, 62.99, 0.000, 0.000, 0.000, 17:00:37.007
171, -37.43, 1.40, 183.73, 62.46, 0.000, 0.000, 0.000, 17:00:37.022
172, 203.57, -46.11, 580.26, 4.85, 0.000, 0.000, 0.000, 17:00:37.022
173, 43.93, -44.93, -4.08, -4.93, 0.000, 0.000, 0.000, 17:00:37.023
174, -160.72, -13.15, -374.77, 75.91, 0.000, 0.000, 0.000, 17:00:37.023
175, -6.30, 10.23, 190.43, 46.21, 0.000, 0.000, 0.000, 17:00:37.037
176, 164.03, -34.41, 624.62, -1.25, 0.000, 0.000, 0.000, 17:00:37.038
177, 33.72, -44.82, 19.70, -7.44, 0.000, 0.000, 0.000, 17:00:37.052
178, -94.77, -0.39, -466.51, 46.37, 0.000, 0.000, 0.000, 17:00:37.053
179, -18.12, 22.34, 135.55, 30.08, 0.000, 0.000, 0.000, 17:00:37.053
180, 159.32, -60.68, 702.34, -12.30, 0.000, 0.000, 0.000, 17:00:37.053
181, -1.77, -58.30, 41.53, -6.74, 0.000, 0.000, 0.000, 17:00:37.068
182, -85.14, 10.37, -545.59, 43.45, 0.000, 0.000, 0.000, 17:00:37.068
183, 51.87, -6.18, 71.53, 59.58, 0.000, 0.000, 0.000, 17:00:37.082
184, 99.30, -33.66, 755.59, -28.88, 0.000, 0.000, 0.000, 17:00:37.083
185, 10.89, 16.82, 58.69, -48.09, 0.000, 0.000, 0.000, 17:00:37.084
186, -59.93, 45.75, -615.67, 25.19, 0.000, 0.000, 0.000, 17:00:37.084
187, 38.86, 2.09, 43.40, 44.73, 0.000, 0.000, 0.000, 17:00:37.098
188, 70.94, -60.49, 829.49, -11.28, 0.000, 0.000, 0.000, 17:00:37.098
189, -13.61, -42.02, 121.87, 23.19, 0.000, 0.000, 0.000, 17:00:37.114
190, -12.31, 19.04, -644.41, 63.35, 0.000, 0.000, 0.000, 17:00:37.114
191, 79.34, 20.05, 31.78, 27.70, 0.000, 0.000, 0.000, 17:00:37.116
192, 73.02, -31.84, 852.13, -13.87, 0.000, 0.000, 0.000, 17:00:37.116
193, -15.86, -55.70, 76.01, 0.28, 0.000, 0.000, 0.000, 17:00:37.128
194, -19.86, 22.76, -710.21, 61.02, 0.000, 0.000, 0.000, 17:00:37.129
195, 66.99, -31.36, 54.58, 41.96, 0.000, 0.000, 0.000, 17:00:37.143
196, 48.87, -62.53, 896.29, -30.23, 0.000, 0.000, 0.000, 17:00:37.144
197, 5.78, -9.41, 57.78, -28.22, 0.000, 0.000, 0.000, 17:00:37.146
198, 25.94, 128.73, -813.45, 22.10, 0.000, 0.000, 0.000, 17:00:37.146
199, 85.19, 32.78, -4.60, 19.79, 0.000, 0.000, 0.000, 17:00:37.157
200, 58.82, -72.36, 893.60, -28.59, 0.000, 0.000, 0.000, 17:00:37.158
0, 15.42, -60.24, 59.71, -19.27, 0.000, 0.000, 0.000, 17:00:37.159
1, 76.05, 92.40, -856.68, 12.45, 0.000, 0.000, 0.000, 17:00:37.172
2, 119.91, 39.75, -20.95, 5.63, 0.000, 0.000, 0.000, 17:00:37.173
3, 52.67, -57.16, 906.24, -27.75, 0.000, 0.000, 0.000, 17:00:37.187
4, 17.90, 14.16, 62.75, -15.87, 0.000, 0.000, 0.000, 17:00:37.188
5, 55.82, 82.48, -870.74, 12.73, 0.000, 0.000, 0.000, 17:00:37.188
6, 87.48, 37.00, 3.31, 21.49, 0.000, 0.000, 0.000, 17:00:37.188
7, 173.90, -52.62, 709.78, -16.29, 0.000, 0.000, 0.000, 17:00:37.203
8, 128.02, -9.34, -221.15, -10.00, 0.000, 0.000, 0.000, 17:00:37.203
9, 72.25, 82.68, -904.51, 11.26, 0.000, 0.000, 0.000, 17:00:37.217
10, 115.75, 45.89, -15.63, 7.15, 0.000, 0.000, 0.000, 17:00:37.218
11, 85.10, -84.20, 886.91, -31.14, 0.000, 0.000, 0.000, 17:00:37.218
12, -7.84, -21.05, 17.53, 35.69, 0.000, 0.000, 0.000, 17:00:37.219
13, 16.12, 29.93, -710.89, 59.62, 0.000, 0.000, 0.000, 17:00:37.232
14, 58.51, 56.04, 22.24, -7.19, 0.000, 0.000, 0.000, 17:00:37.232
15, 56.30, 14.63, 929.20, -66.05, 0.000, 0.000, 0.000, 17:00:37.248
16, 29.40, -45.33, 84.68, -5.37, 0.000, 0.000, 0.000, 17:00:37.248
17, -33.36, 71.52, -752.32, 34.96, 0.000, 0.000, 0.000, 17:00:37.249
18, 55.17, 16.71, 52.43, 16.29, 0.000, 0.000, 0.000, 17:00:37.250
19, 77.70, -8.91, 811.34, -66.61, 0.000, 0.000, 0.000, 17:00:37.262
20, -8.63, -4.32, 75.42, -14.65, 0.000, 0.000, 0.000, 17:00:37.262
21, -46.35, 51.98, -650.90, 74.85, 0.000, 0.000, 0.000, 17:00:37.277
22, 34.03, 48.00, 66.81, 41.69, 0.000, 0.000, 0.000, 17:00:37.277
23, 68.38, 48.92, 896.76, -74.60, 0.000, 0.000, 0.000, 17:00:37.278
24, -16.09, 4.93, 83.23, -39.89, 0.000, 0.000, 0.000, 17:00:37.279
25, -17.39, 8.27, -680.57, 8.88, 0.000, 0.000, 0.000, 17:00:37.292
26, 41.67, 29.81, 139.71, 23.05, 0.000, 0.000, 0.000, 17:00:37.293
27, 56.01, -9.02, 883.02, -35.63, 0.000, 0.000, 0.000, 17:00:37.307
28, -42.33, 64.27, 59.78, -23.50, 0.000, 0.000, 0.000, 17:00:37.307
29, -78.09, 160.87, -654.90, 17.76, 0.000, 0.000, 0.000, 17:00:37.309
30, 24.68, 83.91, 121.27, -13.83, 0.000, 0.000, 0.000, 17:00:37.309
31, 76.56, -73.71, 882.41, -14.40, 0.000, 0.000, 0.000, 17:00:37.322
32, -27.72, 3.75, 63.45, -7.52, 0.000, 0.000, 0.000, 17:00:37.322
33, -50.14, 125.95, -696.02, -10.04, 0.000, 0.000, 0.000, 17:00:37.338
34, 48.48, 35.37, 105.28, 20.39, 0.000, 0.000, 0.000, 17:00:37.338
35, 75.78, -68.84, 877.30, -26.48, 0.000, 0.000, 0.000, 17:00:37.352
36, -22.97, -17.90, 100.22, -11.45, 0.000, 0.000, 0.000, 17:00:37.352
37, -60.08, 142.83, -665.56, 7.70, 0.000, 0.000, 0.000, 17:00:37.353
38, 31.11, 1.55, 87.40, 3.81, 0.000, 0.000, 0.000, 17:00:37.354
39, 89.62, -65.67, 853.66, -32.02, 0.000, 0.000, 0.000, 17:00:37.383
40, 4.92, 10.74, 115.69, -27.04, 0.000, 0.000, 0.000, 17:00:37.386
41, -50.91, 108.45, -661.89, 7.66, 0.000, 0.000, 0.000, 17:00:37.388
42, 35.88, 32.83, 106.92, -19.78, 0.000, 0.000, 0.000, 17:00:37.388
43, 105.98, -96.07, 934.48, -25.15, 0.000, 0.000, 0.000, 17:00:37.390
44, -1.08, -64.48, 124.65, -31.80, 0.000, 0.000, 0.000, 17:00:37.391
45, -16.80, 45.06, -615.32, 15.19, 0.000, 0.000, 0.000, 17:00:37.391
46, 53.62, 64.04, 180.97, 12.89, 0.000, 0.000, 0.000, 17:00:37.391
47, 61.72, 3.07, 949.33, -44.72, 0.000, 0.000, 0.000, 17:00:37.397
48, -5.30, -42.48, 237.34, -41.20, 0.000, 0.000, 0.000, 17:00:37.398
49, -12.93, 107.75, -568.31, 0.32, 0.000, 0.000, 0.000, 17:00:37.413
50, 50.91, 45.06, 162.49, -19.00, 0.000, 0.000, 0.000, 17:00:37.413
51, 59.74, -44.11, 988.02, -68.74, 0.000, 0.000, 0.000, 17:00:37.427
52, -15.03, 27.31, 171.68, -69.79, 0.000, 0.000, 0.000, 17:00:37.428
53, -28.81, 150.01, -595.99, -31.95, 0.000, 0.000, 0.000, 17:00:37.429
54, 56.22, 128.00, 159.69, -78.65, 0.000, 0.000, 0.000, 17:00:37.429
55, 77.20, -33.69, 952.92, -95.77, 0.000, 0.000, 0.000, 17:00:37.442
56, -40.31, 40.37, 134.97, -64.89, 0.000, 0.000, 0.000, 17:00:37.442
57, -30.64, 123.25, -652.00, 39.69, 0.000, 0.000, 0.000, 17:00:37.457
58, 9.83, -10.00, 92.79, 49.39, 0.000, 0.000, 0.000, 17:00:37.457
59, 45.39, -59.31, 919.68, 4.31, 0.000, 0.000, 0.000, 17:00:37.458
60, -19.08, -1.56, 96.24, 8.50, 0.000, 0.000, 0.000, 17:00:37.458
61, -33.57, 90.16, -722.32, 53.47, 0.000, 0.000, 0.000, 17:00:37.474
62, 11.36, 69.19, 65.21, 33.06, 0.000, 0.000, 0.000, 17:00:37.475
63, 50.88, -48.46, 881.76, -17.58, 0.000, 0.000, 0.000, 17:00:37.487
64, -48.64, 16.06, 50.28, -0.88, 0.000, 0.000, 0.000, 17:00:37.488
65, -24.57, 58.25, -721.46, 39.44, 0.000, 0.000, 0.000, 17:00:37.488
66, 50.22, 5.43, 55.54, 22.19, 0.000, 0.000, 0.000, 17:00:37.488
67, 75.72, -19.94, 878.36, 7.64, 0.000, 0.000, 0.000, 17:00:37.503
68, -5.88, 35.29, 28.75, -44.18, 0.000, 0.000, 0.000, 17:00:37.503
69, 5.13, 82.52, -761.12, 7.57, 0.000, 0.000, 0.000, 17:00:37.517
70, 79.33, -3.32, 47.80, 37.23, 0.000, 0.000, 0.000, 17:00:37.517
71, 57.38, -27.34, 756.77, -31.06, 0.000, 0.000, 0.000, 17:00:37.518
72, 16.77, -12.59, -48.01, -2.11, 0.000, 0.000, 0.000, 17:00:37.518
73, -13.13, 101.96, -801.73, 54.63, 0.000, 0.000, 0.000, 17:00:37.532
74, 90.20, 43.18, -89.22, 24.86, 0.000, 0.000, 0.000, 17:00:37.532
75, 126.94, -37.79, 665.23, 9.20, 0.000, 0.000, 0.000, 17:00:37.547
76, 15.29, -27.04, -65.01, -0.40, 0.000, 0.000, 0.000, 17:00:37.547
77, -78.18, 74.38, -742.21, 17.66, 0.000, 0.000, 0.000, 17:00:37.548
78, 12.50, 19.98, 36.62, 9.97, 0.000, 0.000, 0.000, 17:00:37.548
79, 83.48, -45.02, 686.20, -1.53, 0.000, 0.000, 0.000, 17:00:37.565
80, -0.35, 1.06, -48.69, -0.16, 0.000, 0.000, 0.000, 17:00:37.566
81, -124.71, 103.09, -596.57, 41.85, 0.000, 0.000, 0.000, 17:00:37.579
82, 19.97, 38.18, 55.35, 33.70, 0.000, 0.000, 0.000, 17:00:37.580
83, 113.13, -47.91, 647.63, 10.68, 0.000, 0.000, 0.000, 17:00:37.582
84, -15.08, 0.32, 11.60, 15.94, 0.000, 0.000, 0.000, 17:00:37.583
85, -138.81, 86.54, -555.69, 56.20, 0.000, 0.000, 0.000, 17:00:37.593
86, 2.81, 45.30, 73.95, 27.94, 0.000, 0.000, 0.000, 17:00:37.593
87, 96.96, -26.38, 679.66, -4.53, 0.000, 0.000, 0.000, 17:00:37.610
88, -55.63, 2.12, 29.05, 3.70, 0.000, 0.000, 0.000, 17:00:37.610
89, -112.60, 81.76, -542.98, 43.26, 0.000, 0.000, 0.000, 17:00:37.610
90, -22.47, 53.40, 86.11, 39.30, 0.000, 0.000, 0.000, 17:00:37.610
91, 109.68, -34.80, 657.04, -31.00, 0.000, 0.000, 0.000, 17:00:37.623
92, -24.98, -10.39, -13.17, -0.09, 0.000, 0.000, 0.000, 17:00:37.623
93, -73.42, 97.39, -660.62, 67.12, 0.000, 0.000, 0.000, 17:00:37.637
94, 34.51, 51.12, 41.03, 27.51, 0.000, 0.000, 0.000, 17:00:37.638
95, 127.79, -45.74, 654.05, 27.80, 0.000, 0.000, 0.000, 17:00:37.639
96, 1.45, -12.06, -6.80, -2.30, 0.000, 0.000, 0.000, 17:00:37.640
97, -116.63, 112.02, -634.80, 10.28, 0.000, 0.000, 0.000, 17:00:37.652
98, 45.69, 35.34, 41.65, 36.73, 0.000, 0.000, 0.000, 17:00:37.653
99, 95.01, -23.37, 677.52, -5.46, 0.000, 0.000, 0.000, 17:00:37.668
100, 12.88, -18.53, -49.97, -1.32, 0.000, 0.000, 0.000, 17:00:37.668
101, -16.58, 50.77, -776.43, 9.28, 0.000, 0.000, 0.000, 17:00:37.669
102, 87.29, 42.60, -90.20, 24.67, 0.000, 0.000, 0.000, 17:00:37.669
103, 124.03, -40.76, 605.25, 14.52, 0.000, 0.000, 0.000, 17:00:37.682
104, 41.71, 1.66, -115.96, -1.75, 0.000, 0.000, 0.000, 17:00:37.682
105, 0.63, 69.01, -800.00, 32.63, 0.000, 0.000, 0.000, 17:00:37.698
106, 83.68, 39.56, -70.86, 24.67, 0.000, 0.000, 0.000, 17:00:37.699
107, 47.21, -13.02, 754.98, -10.41, 0.000, 0.000, 0.000, 17:00:37.712
108, 7.77, -31.56, -55.86, -9.72, 0.000, 0.000, 0.000, 17:00:37.712
109, 75.43, 86.96, -904.08, 39.73, 0.000, 0.000, 0.000, 17:00:37.713
110, 101.87, 58.04, -151.66, 53.05, 0.000, 0.000, 0.000, 17:00:37.713
111, 61.24, -34.49, 734.32, 42.37, 0.000, 0.000, 0.000, 17:00:37.728
112, -45.37, -57.14, -38.45, 32.10, 0.000, 0.000, 0.000, 17:00:37.728
113, 6.82, -4.35, -782.02, 82.75, 0.000, 0.000, 0.000, 17:00:37.730
114, 102.52, 30.32, -130.83, 56.75, 0.000, 0.000, 0.000, 17:00:37.730
115, 60.51, -36.19, 730.29, 17.32, 0.000, 0.000, 0.000, 17:00:37.745
116, -4.76, -52.17, 11.77, -7.64, 0.000, 0.000, 0.000, 17:00:37.745
117, 42.22, 80.36, -848.79, 30.29, 0.000, 0.000, 0.000, 17:00:37.758
118, 88.91, 64.32, -164.56, 41.60, 0.000, 0.000, 0.000, 17:00:37.758
119, 70.09, -7.70, 749.35, -3.71, 0.000, 0.000, 0.000, 17:00:37.760
120, 8.10, -31.30, -37.37, -12.85, 0.000, 0.000, 0.000, 17:00:37.760
121, 56.36, 97.47, -900.42, 32.83, 0.000, 0.000, 0.000, 17:00:37.774
122, 62.32, 100.53, -112.96, 37.48, 0.000, 0.000, 0.000, 17:00:37.774
123, 41.28, -14.42, 761.74, 33.07, 0.000, 0.000, 0.000, 17:00:37.788
124, -76.53, 21.03, 54.29, 18.76, 0.000, 0.000, 0.000, 17:00:37.788
125, -18.01, 121.82, -814.78, 43.00, 0.000, 0.000, 0.000, 17:00:37.789
126, 27.88, 122.79, -83.16, 51.35, 0.000, 0.000, 0.000, 17:00:37.789
127, -3.60, 68.71, 761.20, -26.03, 0.000, 0.000, 0.000, 17:00:37.802
128, 26.23, -60.23, -56.09, -27.81, 0.000, 0.000, 0.000, 17:00:37.803
129, 220.43, -58.27, -77.43, 8.81, 0.000, 0.000, 0.000, 17:00:37.817
130, 108.58, 28.23, 777.96, 19.92, 0.000, 0.000, 0.000, 17:00:37.818
131, -17.91, 6.65, 1748.73, 46.39, 0.000, 0.000, 0.000, 17:00:37.821
132, -61.38, 19.14, 1050.08, 6.46, 0.000, 0.000, 0.000, 17:00:37.821
133, 8.26, 64.06, 195.12, 38.97, 0.000, 0.000, 0.000, 17:00:37.833
134, 49.66, 22.97, 913.57, 93.69, 0.000, 0.000, 0.000, 17:00:37.833
135, 6.94, -14.47, 1744.88, 49.81, 0.000, 0.000, 0.000, 17:00:37.849
136, -53.84, 1.23, 1007.62, -0.31, 0.000, 0.000, 0.000, 17:00:37.849
137, -28.64, 40.95, 301.16, 32.55, 0.000, 0.000, 0.000, 17:00:37.851
138, 45.70, 205.29, 821.21, 26.35, 0.000, 0.000, 0.000, 17:00:37.875
139, 94.62, 44.60, 1583.46, 21.08, 0.000, 0.000, 0.000, 17:00:37.880
140, -13.06, -20.54, 946.90, -5.30, 0.000, 0.000, 0.000, 17:00:37.884
141, 33.22, 84.74, 130.83, 10.38, 0.000, 0.000, 0.000, 17:00:37.886
142, 101.69, 31.57, 869.31, 29.05, 0.000, 0.000, 0.000, 17:00:37.886
143, 85.72, 6.19, 1624.78, 29.13, 0.000, 0.000, 0.000, 17:00:37.890
144, 38.89, 26.72, 876.34, -10.93, 0.000, 0.000, 0.000, 17:00:37.891
145, 45.97, 68.35, 75.32, 5.16, 0.000, 0.000, 0.000, 17:00:37.893
146, 119.74, 20.85, 848.54, -12.05, 0.000, 0.000, 0.000, 17:00:37.893
147, 123.46, -74.32, 1620.19, 0.93, 0.000, 0.000, 0.000, 17:00:37.910
148, 49.66, -54.82, 848.35, 24.54, 0.000, 0.000, 0.000, 17:00:37.910
149, 12.56, 42.43, 111.89, 82.52, 0.000, 0.000, 0.000, 17:00:37.911
150, 123.13, 27.67, 840.02, 64.73, 0.000, 0.000, 0.000, 17:00:37.911
151, 116.71, -20.05, 1644.53, 4.67, 0.000, 0.000, 0.000, 17:00:37.922
152, -10.48, -15.67, 907.53, 28.83, 0.000, 0.000, 0.000, 17:00:37.922
153, -40.22, 49.73, 226.16, 105.77, 0.000, 0.000, 0.000, 17:00:37.952
154, 44.86, 25.30, 928.88, 62.32, 0.000, 0.000, 0.000, 17:00:37.952
155, 85.63, -69.72, 1675.85, -31.43, 0.000, 0.000, 0.000, 17:00:37.955
156, 4.96, -21.88, 893.77, 4.95, 0.000, 0.000, 0.000, 17:00:37.955
157, -36.49, 25.93, 247.34, 125.80, 0.000, 0.000, 0.000, 17:00:37.957
158, 28.81, -7.45, 976.11, 93.16, 0.000, 0.000, 0.000, 17:00:37.957
159, 43.13, -14.41, 1712.71, 25.09, 0.000, 0.000, 0.000, 17:00:37.968
160, -35.35, -17.17, 967.28, 39.47, 0.000, 0.000, 0.000, 17:00:37.968
161, -71.56, 20.50, 287.15, 114.66, 0.000, 0.000, 0.000, 17:00:37.970
162, 0.10, -7.72, 1007.41, 48.16, 0.000, 0.000, 0.000, 17:00:37.971
163, 68.00, -38.18, 1763.20, 12.29, 0.000, 0.000, 0.000, 17:00:37.983
164, -27.82, -28.43, 945.46, 29.09, 0.000, 0.000, 0.000, 17:00:37.983
165, -47.86, 50.01, 274.92, 95.95, 0.000, 0.000, 0.000, 17:00:37.997
166, -23.26, -3.77, 1019.90, 116.08, 0.000, 0.000, 0.000, 17:00:37.997
167, 79.73, -21.18, 1675.16, -8.39, 0.000, 0.000, 0.000, 17:00:37.998
168, -28.09, -16.90, 947.04, 32.26, 0.000, 0.000, 0.000, 17:00:37.998
169, -102.51, 29.01, 322.63, 67.94, 0.000, 0.000, 0.000, 17:00:38.018
170, 3.60, 12.56, 1012.98, 0.86, 0.000, 0.000, 0.000, 17:00:38.018
171, 39.75, -30.58, 1692.16, -32.60, 0.000, 0.000, 0.000, 17:00:38.028
172, -35.10, -12.56, 945.49, 10.00, 0.000, 0.000, 0.000, 17:00:38.029
173, -69.35, 26.81, 284.83, 113.13, 0.000, 0.000, 0.000, 17:00:38.030
174, 25.38, 13.13, 1012.18, 85.51, 0.000, 0.000, 0.000, 17:00:38.030
175, 67.97, 21.91, 1734.22, -36.74, 0.000, 0.000, 0.000, 17:00:38.043
176, -11.00, -0.14, 911.95, -2.56, 0.000, 0.000, 0.000, 17:00:38.043
177, -76.50, 44.58, 276.07, 124.78, 0.000, 0.000, 0.000, 17:00:38.062
178, -6.14, 9.74, 968.82, 95.29, 0.000, 0.000, 0.000, 17:00:38.066
179, 76.72, -11.27, 1650.82, -16.46, 0.000, 0.000, 0.000, 17:00:38.068
180, -2.86, -6.26, 897.93, -5.38, 0.000, 0.000, 0.000, 17:00:38.068
181, -51.84, 32.76, 322.10, 30.13, 0.000, 0.000, 0.000, 17:00:38.073
182, 41.65, 10.68, 926.44, 18.04, 0.000, 0.000, 0.000, 17:00:38.073
183, 184.55, 19.19, 1486.50, -84.21, 0.000, 0.000, 0.000, 17:00:38.094
184, 24.31, -7.07, 902.60, -57.62, 0.000, 0.000, 0.000, 17:00:38.095
185, -74.13, 22.27, 331.21, 15.13, 0.000, 0.000, 0.000, 17:00:38.095
186, 21.69, 5.81, 965.71, 14.36, 0.000, 0.000, 0.000, 17:00:38.095
187, 148.45, -12.78, 1532.25, -64.33, 0.000, 0.000, 0.000, 17:00:38.107
188, 4.18, -40.72, 942.09, -31.74, 0.000, 0.000, 0.000, 17:00:38.108
189, -114.49, 15.52, 395.77, 49.94, 0.000, 0.000, 0.000, 17:00:38.117
190, 61.28, 29.51, 980.03, 29.20, 0.000, 0.000, 0.000, 17:00:38.117
191, 0.17, -30.97, 1479.01, 328.49, 0.000, 0.000, 0.000, 17:00:38.118
192, -12.91, 2.61, 853.60, 39.08, 0.000, 0.000, 0.000, 17:00:38.118
193, -62.76, 21.54, 378.01, 15.40, 0.000, 0.000, 0.000, 17:00:38.133
194, 62.72, -9.61, 990.31, -1.14, 0.000, 0.000, 0.000, 17:00:38.133
195, 174.24, -19.79, 1599.50, -79.75, 0.000, 0.000, 0.000, 17:00:38.147
196, 39.91, -12.09, 1004.53, -170.18, 0.000, 0.000, 0.000, 17:00:38.147
197, -107.42, 34.19, 496.75, 26.62, 0.000, 0.000, 0.000, 17:00:38.147
198, 11.56, 20.13, 1095.94, 9.89, 0.000, 0.000, 0.000, 17:00:38.147
199, 155.82, -17.62, 1749.00, -214.14, 0.000, 0.000, 0.000, 17:00:38.166
200, 10.53, -32.82, 969.75, -58.68, 0.000, 0.000, 0.000, 17:00:38.167
0, -112.10, 67.29, -530.07, 43.15, 0.000, 0.000, 0.000, 17:00:38.170
1, -22.15, 27.67, 76.72, -13.42, 0.000, 0.000, 0.000, 17:00:38.182
2, 159.41, -6.30, 776.95, -47.87, 0.000, 0.000, 0.000, 17:00:38.182
3, -170.43, -3.20, 48.18, -29.85, 0.000, 0.000, 0.000, 17:00:38.194
4, -359.61, 4.77, -544.36, 12.61, 0.000, 0.000, 0.000, 17:00:38.194
5, -126.44, 18.39, 142.02, 11.22, 0.000, 0.000, 0.000, 17:00:38.194
6, 71.13, 7.44, 787.11, -27.43, 0.000, 0.000, 0.000, 17:00:38.194
7, -13.22, -9.00, 107.94, -10.88, 0.000, 0.000, 0.000, 17:00:38.209
8, -95.49, 11.99, -533.64, 33.43, 0.000, 0.000, 0.000, 17:00:38.210
9, -9.26, 28.64, 168.86, -0.10, 0.000, 0.000, 0.000, 17:00:38.222
10, 16.84, -1.92, 871.74, -7.59, 0.000, 0.000, 0.000, 17:00:38.223
11, -48.22, 6.14, 122.87, -26.56, 0.000, 0.000, 0.000, 17:00:38.224
12, -135.78, 4.06, -479.55, 17.64, 0.000, 0.000, 0.000, 17:00:38.224
13, -1.83, -41.79, 218.55, 6.34, 0.000, 0.000, 0.000, 17:00:38.237
14, 32.18, -2.75, 818.66, 16.29, 0.000, 0.000, 0.000, 17:00:38.237
15, -78.20, 3.47, 119.92, -16.98, 0.000, 0.000, 0.000, 17:00:38.252
16, -166.61, 29.08, -404.59, 23.80, 0.000, 0.000, 0.000, 17:00:38.252
17, -119.10, 17.55, 278.99, 15.86, 0.000, 0.000, 0.000, 17:00:38.253
18, -8.26, -26.18, 888.97, -20.49, 0.000, 0.000, 0.000, 17:00:38.253
19, -118.94, -10.88, 174.01, 3.60, 0.000, 0.000, 0.000, 17:00:38.267
20, -206.67, -80.72, -447.15, 34.49, 0.000, 0.000, 0.000, 17:00:38.267
21, 19.86, -131.08, 214.35, 34.64, 0.000, 0.000, 0.000, 17:00:38.282
22, 109.39, -56.84, 877.95, -31.75, 0.000, 0.000, 0.000, 17:00:38.282
23, -93.22, 7.05, 19.79, 11.85, 0.000, 0.000, 0.000, 17:00:38.282
24, -300.18, 46.89, -581.43, 77.89, 0.000, 0.000, 0.000, 17:00:38.282
25, -94.71, 109.64, 78.06, 141.93, 0.000, 0.000, 0.000, 17:00:38.298
26, -3.55, 252.85, 563.36, 117.31, 0.000, 0.000, 0.000, 17:00:38.298
27, -95.78, 201.15, 2.28, -7.60, 0.000, 0.000, 0.000, 17:00:38.313
28, -148.09, -39.01, -265.17, 24.17, 0.000, 0.000, 0.000, 17:00:38.314
29, -45.63, -40.99, 350.18, 29.01, 0.000, 0.000, 0.000, 17:00:38.315
30, 19.83, 32.15, 874.78, 27.32, 0.000, 0.000, 0.000, 17:00:38.315
31, -66.06, -30.21, 162.26, -14.72, 0.000, 0.000, 0.000, 17:00:38.327
32, -136.38, -15.54, -380.69, 76.15, 0.000, 0.000, 0.000, 17:00:38.327
33, -77.43, 57.92, 279.70, 65.65, 0.000, 0.000, 0.000, 17:00:38.345
34, 9.48, 42.67, 858.62, 57.86, 0.000, 0.000, 0.000, 17:00:38.346
35, -46.43, -9.59, 117.71, 19.85, 0.000, 0.000, 0.000, 17:00:38.346
36, -21.09, 17.47, -585.21, 50.29, 0.000, 0.000, 0.000, 17:00:38.346
37, 4.25, 43.94, 186.33, 52.54, 0.000, 0.000, 0.000, 17:00:38.360
38, 38.96, 1.09, 830.54, 64.94, 0.000, 0.000, 0.000, 17:00:38.360
39, -0.43, -22.22, -31.78, 25.27, 0.000, 0.000, 0.000, 17:00:38.373
40, -56.89, 36.26, -590.26, 37.55, 0.000, 0.000, 0.000, 17:00:38.373
41, -11.69, -5.42, 219.98, 47.10, 0.000, 0.000, 0.000, 17:00:38.375
42, 20.56, -36.65, 898.05, 17.49, 0.000, 0.000, 0.000, 17:00:38.376
43, -20.41, -37.80, 82.80, -12.66, 0.000, 0.000, 0.000, 17:00:38.388
44, -39.48, -31.99, -587.57, 41.50, 0.000, 0.000, 0.000, 17:00:38.389
45, 41.49, 20.41, 69.64, 81.74, 0.000, 0.000, 0.000, 17:00:38.404
46, 39.86, 50.72, 740.14, 76.57, 0.000, 0.000, 0.000, 17:00:38.404
47, -49.21, 25.13, -33.78, 36.81, 0.000, 0.000, 0.000, 17:00:38.405
48, -118.26, 47.43, -714.09, 101.68, 0.000, 0.000, 0.000, 17:00:38.405
49, 18.36, 54.15, 69.93, 79.73, 0.000, 0.000, 0.000, 17:00:38.418
50, 14.44, 34.37, 807.65, 51.80, 0.000, 0.000, 0.000, 17:00:38.418
51, 7.52, -7.24, -82.94, 55.79, 0.000, 0.000, 0.000, 17:00:38.432
52, 83.61, 14.44, -896.65, 52.96, 0.000, 0.000, 0.000, 17:00:38.432
53, 27.72, 15.08, -29.91, 98.38, 0.000, 0.000, 0.000, 17:00:38.433
54, 55.07, 3.77, 781.88, 80.31, 0.000, 0.000, 0.000, 17:00:38.433
55, 40.06, -17.85, -121.60, 28.60, 0.000, 0.000, 0.000, 17:00:38.448
56, 74.49, 19.82, -900.35, 73.89, 0.000, 0.000, 0.000, 17:00:38.448
57, 80.41, 32.05, -56.52, 51.74, 0.000, 0.000, 0.000, 17:00:38.462
58, 50.34, -9.49, 838.90, 25.86, 0.000, 0.000, 0.000, 17:00:38.462
59, 38.65, -24.02, -104.61, 12.18, 0.000, 0.000, 0.000, 17:00:38.463
60, 88.26, 28.29, -875.91, 55.37, 0.000, 0.000, 0.000, 17:00:38.463
61, 96.42, 64.95, -49.51, 20.05, 0.000, 0.000, 0.000, 17:00:38.479
62, 36.82, 65.96, 758.39, -60.20, 0.000, 0.000, 0.000, 17:00:38.479
63, -10.05, 32.20, -98.61, -30.35, 0.000, 0.000, 0.000, 17:00:38.492
64, 61.27, 51.79, -859.54, 61.59, 0.000, 0.000, 0.000, 17:00:38.493
65, 62.11, 95.87, 12.74, 35.76, 0.000, 0.000, 0.000, 17:00:38.494
66, 54.68, 96.68, 795.32, -70.67, 0.000, 0.000, 0.000, 17:00:38.494
67, 30.87, 29.64, -128.71, -49.73, 0.000, 0.000, 0.000, 17:00:38.508
68, 71.91, 31.86, -905.22, 54.00, 0.000, 0.000, 0.000, 17:00:38.508
69, 81.57, 86.23, -58.82, 40.84, 0.000, 0.000, 0.000, 17:00:38.582
70, 52.36, 90.80, 732.90, -44.73, 0.000, 0.000, 0.000, 17:00:38.582
71, 21.80, -10.59, -67.91, -41.27, 0.000, 0.000, 0.000, 17:00:38.584
72, -75.04, 54.30, -796.63, 59.66, 0.000, 0.000, 0.000, 17:00:38.585
73, 34.99, 118.99, -33.85, -3.45, 0.000, 0.000, 0.000, 17:00:38.586
74, 50.27, 181.40, 631.63, -59.90, 0.000, 0.000, 0.000, 17:00:38.586
75, -19.33, 203.37, 621.18, -17.82, 0.000, 0.000, 0.000, 17:00:38.587
76, -24.94, 115.44, 453.13, 43.41, 0.000, 0.000, 0.000, 17:00:38.587
77, 13.22, 223.29, 712.80, 16.37, 0.000, 0.000, 0.000, 17:00:38.588
78, 113.04, 254.27, 919.64, -77.44, 0.000, 0.000, 0.000, 17:00:38.588
79, 0.93, 292.99, 883.85, -32.81, 0.000, 0.000, 0.000, 17:00:38.589
80, -28.20, 224.46, -4.13, 44.71, 0.000, 0.000, 0.000, 17:00:38.590
81, 41.20, 99.13, 887.59, 21.70, 0.000, 0.000, 0.000, 17:00:38.590
82, 66.92, -17.84, 1630.43, -80.70, 0.000, 0.000, 0.000, 17:00:38.590
83, -1.56, -116.96, 824.29, -41.61, 0.000, 0.000, 0.000, 17:00:38.592
84, 52.79, -110.47, 256.69, 90.32, 0.000, 0.000, 0.000, 17:00:38.592
85, 4.79, -71.17, 340.37, 10.29, 0.000, 0.000, 0.000, 17:00:38.598
86, -47.21, -143.97, 1137.22, -39.34, 0.000, 0.000, 0.000, 17:00:38.598
87, -39.15, -51.49, 961.07, 13.10, 0.000, 0.000, 0.000, 17:00:38.614
88, 2.59, 68.05, 19.98, 72.29, 0.000, 0.000, 0.000, 17:00:38.614
89, -13.68, 81.82, 901.85, 125.72, 0.000, 0.000, 0.000, 17:00:38.628
90, -158.32, 172.31, 1815.50, 22.89, 0.000, 0.000, 0.000, 17:00:38.628
91, -24.53, 175.28, 1701.07, 88.46, 0.000, 0.000, 0.000, 17:00:38.630
92, 98.67, 143.82, 860.11, 135.22, 0.000, 0.000, 0.000, 17:00:38.630
93, 31.38, 161.84, 1714.57, 164.43, 0.000, 0.000, 0.000, 17:00:38.644
94, -26.02, 119.44, 2542.19, 168.45, 0.000, 0.000, 0.000, 17:00:38.645
95, -27.48, 55.31, 1725.21, 126.57, 0.000, 0.000, 0.000, 17:00:38.647
96, 46.11, 93.13, 963.95, 136.93, 0.000, 0.000, 0.000, 17:00:38.648
97, 32.84, 134.86, 1707.12, 209.72, 0.000, 0.000, 0.000, 17:00:38.657
98, -15.54, 114.77, 2540.55, 193.44, 0.000, 0.000, 0.000, 17:00:38.658
99, 8.76, -1.90, 1820.85, 56.47, 0.000, 0.000, 0.000, 17:00:38.672
100, 46.79, -24.14, 1094.20, 28.52, 0.000, 0.000, 0.000, 17:00:38.673
101, -28.22, 180.34, 1813.78, 67.32, 0.000, 0.000, 0.000, 17:00:38.673
102, -11.66, 465.14, 2367.22, 5.35, 0.000, 0.000, 0.000, 17:00:38.674
103, -32.20, 210.80, 1547.10, 117.61, 0.000, 0.000, 0.000, 17:00:38.687
104, -79.85, 33.18, 1156.87, 81.00, 0.000, 0.000, 0.000, 17:00:38.688
105, 6.86, 13.49, 2031.52, 26.59, 0.000, 0.000, 0.000, 17:00:38.702
106, 84.93, 51.93, 2679.91, 17.91, 0.000, 0.000, 0.000, 17:00:38.702
107, 16.85, 34.08, 1812.26, 5.22, 0.000, 0.000, 0.000, 17:00:38.703
108, 53.56, 156.56, 991.90, -0.93, 0.000, 0.000, 0.000, 17:00:38.703
109, 50.06, 315.40, 1736.86, 14.51, 0.000, 0.000, 0.000, 17:00:38.717
110, 6.88, 301.46, 2474.10, 32.37, 0.000, 0.000, 0.000, 17:00:38.718
111, -100.73, 197.00, 1702.27, 67.66, 0.000, 0.000, 0.000, 17:00:38.748
112, -20.12, 62.94, 1071.72, 106.64, 0.000, 0.000, 0.000, 17:00:38.750
113, 27.02, 94.13, 1799.74, 158.93, 0.000, 0.000, 0.000, 17:00:38.751
114, 9.33, 176.58, 2458.73, 200.99, 0.000, 0.000, 0.000, 17:00:38.751
115, -6.60, 89.06, 1704.07, 113.24, 0.000, 0.000, 0.000, 17:00:38.752
116, 14.22, 8.09, 1146.64, 47.38, 0.000, 0.000, 0.000, 17:00:38.752
117, 45.04, 42.68, 1819.10, 135.54, 0.000, 0.000, 0.000, 17:00:38.753
118, 4.76, 70.21, 2474.39, 178.55, 0.000, 0.000, 0.000, 17:00:38.753
119, -5.35, -26.27, 1886.65, 6.96, 0.000, 0.000, 0.000, 17:00:38.763
120, 1.89, -89.15, 1368.12, -11.92, 0.000, 0.000, 0.000, 17:00:38.763
121, 2.25, -65.28, 2204.57, -62.08, 0.000, 0.000, 0.000, 17:00:38.777
122, 8.43, -4.55, 2875.94, -49.84, 0.000, 0.000, 0.000, 17:00:38.778
123, -27.45, -77.98, 2019.21, -51.36, 0.000, 0.000, 0.000, 17:00:38.792
124, 12.60, -67.42, 1279.88, -14.67, 0.000, 0.000, 0.000, 17:00:38.793
125, 6.21, -41.93, 2155.93, 7.49, 0.000, 0.000, 0.000, 17:00:38.794
126, -45.25, -9.69, 2886.91, -25.03, 0.000, 0.000, 0.000, 17:00:38.794
127, -26.63, -47.52, 2010.54, 12.72, 0.000, 0.000, 0.000, 17:00:38.807
128, -16.74, -90.33, 1295.71, 36.08, 0.000, 0.000, 0.000, 17:00:38.808
129, -34.23, -66.76, 2187.46, 5.52, 0.000, 0.000, 0.000, 17:00:38.823
130, -66.12, 169.15, 2571.81, 214.10, 0.000, 0.000, 0.000, 17:00:38.823
131, -16.02, 105.55, 1627.79, 187.57, 0.000, 0.000, 0.000, 17:00:38.825
132, 70.54, 36.11, 1045.51, 136.29, 0.000, 0.000, 0.000, 17:00:38.826
133, 17.16, 15.80, 1970.21, 80.81, 0.000, 0.000, 0.000, 17:00:38.838
134, 12.32, -46.02, 2870.43, 4.08, 0.000, 0.000, 0.000, 17:00:38.838
135, 22.42, 43.40, 2620.00, 186.20, 0.000, 0.000, 0.000, 17:00:38.852
136, 11.90, 283.05, 2599.09, 357.09, 0.000, 0.000, 0.000, 17:00:38.853
137, 32.47, 328.78, 3301.55, 409.69, 0.000, 0.000, 0.000, 17:00:38.854
138, 13.89, 176.01, 3376.11, 232.69, 0.000, 0.000, 0.000, 17:00:38.854
139, 11.59, -60.76, 2930.51, -15.92, 0.000, 0.000, 0.000, 17:00:38.867
140, -0.24, -2.05, 2148.25, 29.69, 0.000, 0.000, 0.000, 17:00:38.867
141, 20.64, -35.40, 2161.15, 11.64, 0.000, 0.000, 0.000, 17:00:38.883
142, -17.07, -144.69, 3055.14, -59.70, 0.000, 0.000, 0.000, 17:00:38.884
143, -13.24, -112.15, 3003.28, -55.65, 0.000, 0.000, 0.000, 17:00:38.885
144, 31.27, -33.33, 2117.16, 55.54, 0.000, 0.000, 0.000, 17:00:38.885
145, 11.09, -11.20, 2177.71, -25.01, 0.000, 0.000, 0.000, 17:00:38.900
146, 7.96, -128.10, 3096.87, -103.37, 0.000, 0.000, 0.000, 17:00:38.900
147, -11.42, -108.62, 3003.87, -96.44, 0.000, 0.000, 0.000, 17:00:38.913
148, 49.01, 44.29, 2047.32, 53.06, 0.000, 0.000, 0.000, 17:00:38.913
149, 27.19, 1.60, 2990.02, 38.40, 0.000, 0.000, 0.000, 17:00:38.917
150, -4.66, 32.47, 3699.30, 94.19, 0.000, 0.000, 0.000, 17:00:38.917
151, -9.53, 1.99, 2831.05, -7.94, 0.000, 0.000, 0.000, 17:00:38.928
152, 20.36, -95.46, 2220.97, 16.71, 0.000, 0.000, 0.000, 17:00:38.929
153, 3.74, -107.50, 2263.17, -79.53, 0.000, 0.000, 0.000, 17:00:38.952
154, 5.76, -32.03, 2913.96, -20.31, 0.000, 0.000, 0.000, 17:00:38.953
155, -8.56, -103.23, 1978.39, -77.57, 0.000, 0.000, 0.000, 17:00:38.955
156, 29.41, -108.99, 1296.86, -33.00, 0.000, 0.000, 0.000, 17:00:38.956
157, 13.27, -57.96, 2151.59, -11.97, 0.000, 0.000, 0.000, 17:00:38.957
158, -6.41, -30.31, 2925.73, -24.61, 0.000, 0.000, 0.000, 17:00:38.957
159, -8.57, -63.11, 1973.56, -44.67, 0.000, 0.000, 0.000, 17:00:38.977
160, 9.07, -41.17, 1188.75, 19.91, 0.000, 0.000, 0.000, 17:00:38.977
161, 7.42, 16.52, 2010.29, 78.05, 0.000, 0.000, 0.000, 17:00:38.977
162, -22.54, 30.21, 2747.25, 79.44, 0.000, 0.000, 0.000, 17:00:38.977
163, -6.64, -24.48, 1887.50, 48.62, 0.000, 0.000, 0.000, 17:00:38.988
164, 10.23, 53.51, 1109.26, 91.60, 0.000, 0.000, 0.000, 17:00:38.989
165, -0.21, 77.34, 1923.69, 113.76, 0.000, 0.000, 0.000, 17:00:39.002
166, 2.09, -10.30, 2801.02, 10.25, 0.000, 0.000, 0.000, 17:00:39.003
167, -15.92, -27.26, 1901.85, 36.41, 0.000, 0.000, 0.000, 17:00:39.004
168, 16.21, 22.16, 1155.92, 47.32, 0.000, 0.000, 0.000, 17:00:39.004
169, 26.65, 111.15, 1871.49, 140.69, 0.000, 0.000, 0.000, 17:00:39.018
170, 0.50, 160.47, 2451.55, 202.25, 0.000, 0.000, 0.000, 17:00:39.018
171, -16.70, 120.06, 1605.06, 135.51, 0.000, 0.000, 0.000, 17:00:39.033
172, 30.06, 57.74, 1056.16, 109.67, 0.000, 0.000, 0.000, 17:00:39.033
173, 6.29, 118.44, 1819.20, 148.41, 0.000, 0.000, 0.000, 17:00:39.035
174, 5.49, 220.22, 2441.95, 245.23, 0.000, 0.000, 0.000, 17:00:39.035
175, -0.27, 132.36, 1637.50, 124.94, 0.000, 0.000, 0.000, 17:00:39.049
176, 22.24, 57.66, 1059.44, 81.76, 0.000, 0.000, 0.000, 17:00:39.050
177, 36.58, 91.83, 1851.50, 122.39, 0.000, 0.000, 0.000, 17:00:39.063
178, 6.84, 173.68, 2467.96, 194.16, 0.000, 0.000, 0.000, 17:00:39.063
179, -15.78, 112.31, 1664.69, 150.96, 0.000, 0.000, 0.000, 17:00:39.064
180, 20.09, 82.29, 992.10, 109.41, 0.000, 0.000, 0.000, 17:00:39.064
181, 34.79, 193.08, 1611.66, 210.25, 0.000, 0.000, 0.000, 17:00:39.078
182, -0.77, 332.43, 2095.55, 362.56, 0.000, 0.000, 0.000, 17:00:39.078
183, -9.76, 189.36, 1377.40, 283.92, 0.000, 0.000, 0.000, 17:00:39.095
184, 21.90, 158.17, 860.91, 191.88, 0.000, 0.000, 0.000, 17:00:39.095
185, 14.93, 152.14, 1799.43, 171.80, 0.000, 0.000, 0.000, 17:00:39.096
186, -10.82, 215.21, 2390.47, 198.63, 0.000, 0.000, 0.000, 17:00:39.096
187, 0.29, 9.38, 1760.88, 65.79, 0.000, 0.000, 0.000, 17:00:39.107
188, 31.01, -128.33, 1331.11, 0.68, 0.000, 0.000, 0.000, 17:00:39.108
189, 11.23, -101.07, 2132.92, 54.58, 0.000, 0.000, 0.000, 17:00:39.122
190, -36.07, -69.84, 2779.23, 72.84, 0.000, 0.000, 0.000, 17:00:39.123
191, -12.59, -76.85, 1911.92, 71.58, 0.000, 0.000, 0.000, 17:00:39.123
192, 8.96, -30.80, 1217.03, 36.51, 0.000, 0.000, 0.000, 17:00:39.124
193, 0.22, -55.69, 1951.65, 212.15, 0.000, 0.000, 0.000, 17:00:39.138
194, -25.39, -15.63, 2743.44, 179.28, 0.000, 0.000, 0.000, 17:00:39.138
195, -16.88, -39.75, 1937.81, -10.69, 0.000, 0.000, 0.000, 17:00:39.152
196, 37.97, -24.52, 1270.40, 1.46, 0.000, 0.000, 0.000, 17:00:39.153
197, 33.66, -60.49, 2095.23, 3.43, 0.000, 0.000, 0.000, 17:00:39.154
198, 11.94, -108.72, 2837.91, 70.45, 0.000, 0.000, 0.000, 17:00:39.155
199, 23.57, -114.02, 1937.39, 63.65, 0.000, 0.000, 0.000, 17:00:39.167
200, 34.37, -47.72, 1275.28, 43.41, 0.000, 0.000, 0.000, 17:00:39.168
0, 36.18, -67.00, 188.54, 25.83, 0.000, 0.000, 0.000, 17:00:39.168
1, 13.29, -55.35, 916.33, -47.78, 0.000, 0.000, 0.000, 17:00:39.182
2, 27.74, -47.53, 2.01, -68.37, 0.000, 0.000, 0.000, 17:00:39.183
3, 55.13, -33.82, -718.34, -13.65, 0.000, 0.000, 0.000, 17:00:39.197
4, 31.34, -24.09, 135.10, -43.01, 0.000, 0.000, 0.000, 17:00:39.198
5, 11.50, -31.35, 867.09, -92.38, 0.000, 0.000, 0.000, 17:00:39.199
6, -22.20, -67.32, 4.01, -72.15, 0.000, 0.000, 0.000, 17:00:39.199
7, 37.41, 6.31, -740.43, -2.74, 0.000, 0.000, 0.000, 17:00:39.213
8, 37.89, -29.72, 146.41, -38.67, 0.000, 0.000, 0.000, 17:00:39.213
9, 11.74, -118.03, 1098.95, -115.34, 0.000, 0.000, 0.000, 17:00:39.228
10, -6.14, -71.42, 1071.26, -63.09, 0.000, 0.000, 0.000, 17:00:39.228
11, 16.96, -22.39, 220.08, -13.46, 0.000, 0.000, 0.000, 17:00:39.229
12, 26.16, -98.89, 256.37, -92.15, 0.000, 0.000, 0.000, 17:00:39.229
13, 17.94, -131.82, 1196.30, -146.19, 0.000, 0.000, 0.000, 17:00:39.243
14, 4.90, -80.26, 1056.59, -80.86, 0.000, 0.000, 0.000, 17:00:39.243
15, 46.03, 14.41, 205.23, -2.69, 0.000, 0.000, 0.000, 17:00:39.259
16, 15.90, -17.74, 1158.44, -48.54, 0.000, 0.000, 0.000, 17:00:39.259
17, -19.35, -92.45, 2095.95, -107.13, 0.000, 0.000, 0.000, 17:00:39.259
18, 2.26, -64.15, 2001.76, -56.94, 0.000, 0.000, 0.000, 17:00:39.259
19, 59.35, 15.62, 1186.03, 4.05, 0.000, 0.000, 0.000, 17:00:39.272
20, 23.09, -24.34, 2137.61, -31.50, 0.000, 0.000, 0.000, 17:00:39.272
21, -10.77, 32.58, 2789.36, 24.56, 0.000, 0.000, 0.000, 17:00:39.289
22, -32.70, 45.51, 2690.59, 15.67, 0.000, 0.000, 0.000, 17:00:39.290
23, 17.71, 74.67, 1960.12, 41.28, 0.000, 0.000, 0.000, 17:00:39.291
24, 1.10, 110.72, 2923.60, 104.36, 0.000, 0.000, 0.000, 17:00:39.291
25, -31.55, 98.68, 3722.10, 105.67, 0.000, 0.000, 0.000, 17:00:39.302
26, -6.43, 70.84, 2788.80, 44.35, 0.000, 0.000, 0.000, 17:00:39.303
27, 9.79, 95.96, 1981.97, 72.79, 0.000, 0.000, 0.000, 17:00:39.318
28, 6.61, 134.48, 2826.16, 129.23, 0.000, 0.000, 0.000, 17:00:39.318
29, -40.21, 332.05, 3255.46, 350.02, 0.000, 0.000, 0.000, 17:00:39.324
30, -13.85, 189.60, 2435.96, 217.43, 0.000, 0.000, 0.000, 17:00:39.324
31, -7.67, 73.76, 1870.60, 99.63, 0.000, 0.000, 0.000, 17:00:39.333
32, -2.55, 61.37, 2821.61, 39.81, 0.000, 0.000, 0.000, 17:00:39.334
33, -12.01, 23.56, 3511.61, 91.14, 0.000, 0.000, 0.000, 17:00:39.348
34, -24.66, 58.57, 2652.01, 106.76, 0.000, 0.000, 0.000, 17:00:39.348
35, 13.42, 78.95, 1976.21, 173.35, 0.000, 0.000, 0.000, 17:00:39.348
36, 2.51, 70.38, 2956.47, 72.11, 0.000, 0.000, 0.000, 17:00:39.349
37, -3.09, 90.08, 3750.41, 18.04, 0.000, 0.000, 0.000, 17:00:39.371
38, -3.83, 6.70, 2920.91, 3.98, 0.000, 0.000, 0.000, 17:00:39.371
39, 31.41, -108.18, 2471.79, -142.72, 0.000, 0.000, 0.000, 17:00:39.377
40, 30.78, -115.76, 3375.38, -110.77, 0.000, 0.000, 0.000, 17:00:39.377
41, 5.64, -57.81, 3952.07, -57.82, 0.000, 0.000, 0.000, 17:00:39.377
42, -7.73, -57.93, 3033.60, -83.20, 0.000, 0.000, 0.000, 17:00:39.378
43, 39.40, -39.58, 2374.09, -81.54, 0.000, 0.000, 0.000, 17:00:39.393
44, 11.66, -36.58, 3034.08, -17.99, 0.000, 0.000, 0.000, 17:00:39.394
45, 2.41, -13.49, 3684.98, -17.12, 0.000, 0.000, 0.000, 17:00:39.408
46, 10.12, 4.59, 2900.36, -7.21, 0.000, 0.000, 0.000, 17:00:39.408
47, 37.59, 27.42, 2330.40, 36.76, 0.000, 0.000, 0.000, 17:00:39.418
48, 18.52, 6.44, 3065.36, 13.75, 0.000, 0.000, 0.000, 17:00:39.419
49, 5.83, -29.81, 3684.25, -32.24, 0.000, 0.000, 0.000, 17:00:39.430
50, -13.10, -29.61, 2935.98, -11.32, 0.000, 0.000, 0.000, 17:00:39.431
51, 44.16, 38.66, 2319.61, -3.00, 0.000, 0.000, 0.000, 17:00:39.439
52, 15.89, 22.88, 3058.65, 8.78, 0.000, 0.000, 0.000, 17:00:39.439
53, -19.12, 57.28, 3656.43, -4.41, 0.000, 0.000, 0.000, 17:00:39.443
54, 2.32, -38.62, 2882.19, -8.33, 0.000, 0.000, 0.000, 17:00:39.444
55, 24.61, -32.13, 2387.90, -31.65, 0.000, 0.000, 0.000, 17:00:39.460
56, 42.33, -4.97, 3105.19, -4.59, 0.000, 0.000, 0.000, 17:00:39.460
57, -1.45, 33.51, 3644.87, 14.95, 0.000, 0.000, 0.000, 17:00:39.468
58, -23.25, -31.12, 2907.43, -26.00, 0.000, 0.000, 0.000, 17:00:39.468
59, 37.45, -9.27, 2380.86, -18.58, 0.000, 0.000, 0.000, 17:00:39.469
60, 16.44, 19.14, 3173.79, -5.38, 0.000, 0.000, 0.000, 17:00:39.470
61, 13.65, 13.22, 3760.81, 34.06, 0.000, 0.000, 0.000, 17:00:39.482
62, -6.37, -30.69, 2949.52, -41.11, 0.000, 0.000, 0.000, 17:00:39.483
63, 3.73, -59.92, 2434.98, -56.85, 0.000, 0.000, 0.000, 17:00:39.498
64, 39.05, -36.93, 3213.66, -26.83, 0.000, 0.000, 0.000, 17:00:39.498
65, -4.76, 1.47, 3846.78, -95.76, 0.000, 0.000, 0.000, 17:00:39.500
66, -8.19, -98.86, 3026.83, -28.09, 0.000, 0.000, 0.000, 17:00:39.500
67, 22.59, -134.29, 2426.45, 110.00, 0.000, 0.000, 0.000, 17:00:39.512
68, 50.56, -102.17, 3240.75, 45.18, 0.000, 0.000, 0.000, 17:00:39.513
69, 8.04, -34.32, 3806.69, -4.43, 0.000, 0.000, 0.000, 17:00:39.528
70, 7.80, -81.51, 2910.30, 93.56, 0.000, 0.000, 0.000, 17:00:39.528
71, 21.08, -124.89, 2398.59, 74.82, 0.000, 0.000, 0.000, 17:00:39.529
72, 13.93, 12.84, 3056.55, 0.04, 0.000, 0.000, 0.000, 17:00:39.530
73, 9.29, 50.67, 3782.19, -64.71, 0.000, 0.000, 0.000, 17:00:39.542
74, 8.27, 31.49, 2930.04, -50.77, 0.000, 0.000, 0.000, 17:00:39.542
75, 51.63, -19.62, 2256.87, 75.39, 0.000, 0.000, 0.000, 17:00:39.557
76, 24.87, 19.06, 3049.62, 12.57, 0.000, 0.000, 0.000, 17:00:39.558
77, 2.34, -15.66, 3768.64, -23.35, 0.000, 0.000, 0.000, 17:00:39.559
78, -10.45, -118.76, 2938.59, -46.57, 0.000, 0.000, 0.000, 17:00:39.559
79, 7.38, -133.52, 2423.57, 43.92, 0.000, 0.000, 0.000, 17:00:39.572
80, 14.55, -105.55, 3238.60, -9.10, 0.000, 0.000, 0.000, 17:00:39.573
81, 3.21, -106.86, 3981.14, -79.24, 0.000, 0.000, 0.000, 17:00:39.587
82, 2.09, -93.11, 3062.40, -82.74, 0.000, 0.000, 0.000, 17:00:39.588
83, 42.31, -107.71, 2430.42, 53.88, 0.000, 0.000, 0.000, 17:00:39.589
84, 33.45, -67.48, 3197.21, 5.45, 0.000, 0.000, 0.000, 17:00:39.589
85, 41.08, -44.87, 3627.89, 229.28, 0.000, 0.000, 0.000, 17:00:39.602
86, 7.00, -33.18, 3514.14, 376.39, 0.000, 0.000, 0.000, 17:00:39.602
87, 54.50, 204.70, 2778.34, 238.74, 0.000, 0.000, 0.000, 17:00:39.617
88, 39.84, 211.00, 3703.69, 212.80, 0.000, 0.000, 0.000, 17:00:39.617
89, 14.16, 252.54, 4461.82, 194.80, 0.000, 0.000, 0.000, 17:00:39.618
90, 2.96, 120.17, 3523.34, 114.70, 0.000, 0.000, 0.000, 17:00:39.619
91, 25.19, 73.85, 2907.29, 165.52, 0.000, 0.000, 0.000, 17:00:39.633
92, 1.63, 107.77, 3802.17, 74.62, 0.000, 0.000, 0.000, 17:00:39.633
93, 29.61, 95.43, 4541.44, 50.67, 0.000, 0.000, 0.000, 17:00:39.648
94, -5.39, 127.07, 3664.00, 65.33, 0.000, 0.000, 0.000, 17:00:39.648
95, 24.55, 189.23, 2881.18, 167.81, 0.000, 0.000, 0.000, 17:00:39.649
96, 8.42, 214.86, 3632.88, 161.58, 0.000, 0.000, 0.000, 17:00:39.649
97, -0.52, 244.54, 4359.98, 210.76, 0.000, 0.000, 0.000, 17:00:39.662
98, -10.65, 188.52, 3585.38, 126.26, 0.000, 0.000, 0.000, 17:00:39.662
99, 24.53, 133.63, 2977.68, 86.53, 0.000, 0.000, 0.000, 17:00:39.682
100, 12.27, 207.05, 3716.90, 163.43, 0.000, 0.000, 0.000, 17:00:39.683
101, -11.85, 199.88, 4365.34, 158.67, 0.000, 0.000, 0.000, 17:00:39.683
102, -20.88, 96.77, 3553.37, 61.12, 0.000, 0.000, 0.000, 17:00:39.684
103, 11.95, 121.61, 3010.17, 75.40, 0.000, 0.000, 0.000, 17:00:39.692
104, 13.88, 142.63, 3750.42, 116.26, 0.000, 0.000, 0.000, 17:00:39.693
105, -0.47, 234.80, 4314.33, 189.57, 0.000, 0.000, 0.000, 17:00:39.708
106, -13.01, 91.23, 3575.47, 82.50, 0.000, 0.000, 0.000, 17:00:39.709
107, 28.05, 95.24, 3010.46, 56.98, 0.000, 0.000, 0.000, 17:00:39.710
108, 28.44, 118.87, 3780.83, 63.63, 0.000, 0.000, 0.000, 17:00:39.711
109, 11.09, 136.08, 4421.69, 39.90, 0.000, 0.000, 0.000, 17:00:39.723
110, -5.10, 57.81, 3669.97, 25.21, 0.000, 0.000, 0.000, 17:00:39.723
111, 27.74, 58.39, 3063.22, 30.48, 0.000, 0.000, 0.000, 17:00:39.737
112, 9.96, 77.43, 3912.52, 23.65, 0.000, 0.000, 0.000, 17:00:39.737
113, 2.64, 104.51, 4523.92, 58.05, 0.000, 0.000, 0.000, 17:00:39.738
114, 0.02, 30.38, 3766.29, -12.72, 0.000, 0.000, 0.000, 17:00:39.738
115, 47.35, 11.11, 3223.85, -29.89, 0.000, 0.000, 0.000, 17:00:39.752
116, 12.98, 43.19, 3941.75, -16.65, 0.000, 0.000, 0.000, 17:00:39.752
117, -12.24, 37.73, 4628.80, 12.63, 0.000, 0.000, 0.000, 17:00:39.767
118, -5.62, -15.33, 3841.22, -17.96, 0.000, 0.000, 0.000, 17:00:39.767
119, 2.26, -21.24, 3284.32, -19.05, 0.000, 0.000, 0.000, 17:00:39.768
120, -0.12, 17.15, 4084.97, 4.62, 0.000, 0.000, 0.000, 17:00:39.768
121, -9.24, 44.88, 4652.83, -4.12, 0.000, 0.000, 0.000, 17:00:39.784
122, -7.68, -3.83, 3860.34, -38.36, 0.000, 0.000, 0.000, 17:00:39.784
123, 21.47, -18.63, 3372.97, -25.78, 0.000, 0.000, 0.000, 17:00:39.797
124, -12.90, 10.70, 4092.15, -32.08, 0.000, 0.000, 0.000, 17:00:39.798
125, 12.98, 32.48, 4726.27, -27.25, 0.000, 0.000, 0.000, 17:00:39.798
126, 14.31, 11.92, 3856.43, -12.44, 0.000, 0.000, 0.000, 17:00:39.799
127, 18.43, -18.02, 3368.80, -56.98, 0.000, 0.000, 0.000, 17:00:39.813
128, 14.18, 52.12, 4151.64, 3.36, 0.000, 0.000, 0.000, 17:00:39.813
129, 8.42, 57.32, 4728.23, 68.41, 0.000, 0.000, 0.000, 17:00:39.828
130, -11.40, -5.28, 3939.43, 7.40, 0.000, 0.000, 0.000, 17:00:39.828
131, 26.82, -47.32, 3420.72, -81.85, 0.000, 0.000, 0.000, 17:00:39.834
132, 15.44, 12.65, 4167.11, -24.96, 0.000, 0.000, 0.000, 17:00:39.835
133, -18.34, 43.48, 4757.92, 27.09, 0.000, 0.000, 0.000, 17:00:39.843
134, -10.94, -22.63, 3894.22, -44.85, 0.000, 0.000, 0.000, 17:00:39.844
135, 19.63, -38.77, 3404.11, -73.77, 0.000, 0.000, 0.000, 17:00:39.859
136, 33.05, -41.50, 4164.11, -30.31, 0.000, 0.000, 0.000, 17:00:39.859
137, -3.64, -22.88, 4788.94, -34.17, 0.000, 0.000, 0.000, 17:00:39.860
138, -18.78, -33.52, 3921.07, -67.68, 0.000, 0.000, 0.000, 17:00:39.860
139, 27.44, -39.53, 3420.74, -61.19, 0.000, 0.000, 0.000, 17:00:39.872
140, 22.76, -38.99, 4141.31, 5.40, 0.000, 0.000, 0.000, 17:00:39.873
141, 3.37, 10.09, 4718.81, 29.33, 0.000, 0.000, 0.000, 17:00:39.888
142, -2.75, -44.85, 3926.62, -18.98, 0.000, 0.000, 0.000, 17:00:39.889
143, 16.04, -36.70, 3311.15, -78.26, 0.000, 0.000, 0.000, 17:00:39.902
144, 42.71, -0.79, 4085.34, -49.45, 0.000, 0.000, 0.000, 17:00:39.902
145, -14.50, 21.96, 4726.06, -4.22, 0.000, 0.000, 0.000, 17:00:39.903
146, -6.33, -19.30, 3870.72, -62.44, 0.000, 0.000, 0.000, 17:00:39.903
147, 33.43, -14.90, 3380.58, -62.07, 0.000, 0.000, 0.000, 17:00:39.917
148, 4.34, 6.94, 4127.01, -43.34, 0.000, 0.000, 0.000, 17:00:39.920
149, -7.72, 29.02, 4722.59, -3.30, 0.000, 0.000, 0.000, 17:00:39.921
150, 6.16, -31.64, 3894.21, -61.17, 0.000, 0.000, 0.000, 17:00:39.921
151, 36.98, -24.06, 3367.22, -40.39, 0.000, 0.000, 0.000, 17:00:39.932
152, 16.56, 3.49, 4110.68, 34.04, 0.000, 0.000, 0.000, 17:00:39.932
153, -3.13, 104.62, 4702.84, 86.89, 0.000, 0.000, 0.000, 17:00:39.949
154, -12.26, 21.64, 3914.82, -5.47, 0.000, 0.000, 0.000, 17:00:39.949
155, 25.53, -42.74, 3334.18, -24.32, 0.000, 0.000, 0.000, 17:00:39.949
156, 4.52, 33.24, 4092.40, 14.35, 0.000, 0.000, 0.000, 17:00:39.950
157, -4.05, 110.32, 4659.72, 80.93, 0.000, 0.000, 0.000, 17:00:39.962
158, -15.84, -35.62, 3952.47, -53.62, 0.000, 0.000, 0.000, 17:00:39.963
159, 8.78, -101.92, 3435.05, -110.50, 0.000, 0.000, 0.000, 17:00:39.977
160, -24.19, -62.35, 4268.85, -91.29, 0.000, 0.000, 0.000, 17:00:39.978
161, -52.27, -28.39, 4884.95, -36.56, 0.000, 0.000, 0.000, 17:00:39.978
162, -57.26, -92.30, 4072.63, -116.16, 0.000, 0.000, 0.000, 17:00:39.979
163, -4.16, -104.51, 3461.69, -85.64, 0.000, 0.000, 0.000, 17:00:39.992
164, -11.55, -28.17, 4169.61, -24.82, 0.000, 0.000, 0.000, 17:00:39.992
165, -23.39, 33.46, 4728.26, 20.43, 0.000, 0.000, 0.000, 17:00:40.021
166, -9.72, -64.87, 4041.32, -40.07, 0.000, 0.000, 0.000, 17:00:40.023
167, 4.09, -193.48, 3727.66, -161.18, 0.000, 0.000, 0.000, 17:00:40.024
168, 27.24, -42.72, 4269.34, -39.69, 0.000, 0.000, 0.000, 17:00:40.028
169, -12.47, 88.61, 4705.99, 89.85, 0.000, 0.000, 0.000, 17:00:40.032
170, -22.11, -48.98, 3931.89, -68.71, 0.000, 0.000, 0.000, 17:00:40.032
171, 25.26, -51.59, 3454.01, -130.40, 0.000, 0.000, 0.000, 17:00:40.040
172, 15.56, -24.84, 4142.96, -68.06, 0.000, 0.000, 0.000, 17:00:40.041
173, -9.43, 43.77, 4742.54, 54.37, 0.000, 0.000, 0.000, 17:00:40.044
174, -18.89, -13.34, 4103.62, -16.81, 0.000, 0.000, 0.000, 17:00:40.044
175, 17.23, -131.23, 3889.43, -129.33, 0.000, 0.000, 0.000, 17:00:40.053
176, 6.17, -27.68, 4174.06, -1.64, 0.000, 0.000, 0.000, 17:00:40.053
177, -15.41, -10.20, 4602.41, 97.99, 0.000, 0.000, 0.000, 17:00:40.067
178, 3.30, -49.79, 3908.05, -24.44, 0.000, 0.000, 0.000, 17:00:40.068
179, 16.99, -114.56, 3407.75, -108.54, 0.000, 0.000, 0.000, 17:00:40.069
180, 18.07, -39.28, 4064.39, -76.62, 0.000, 0.000, 0.000, 17:00:40.069
181, -14.39, 81.61, 4609.60, 47.05, 0.000, 0.000, 0.000, 17:00:40.084
182, 11.45, -8.22, 3812.91, -4.84, 0.000, 0.000, 0.000, 17:00:40.086
183, 12.92, -47.36, 3365.43, -52.95, 0.000, 0.000, 0.000, 17:00:40.097
184, 29.49, -11.85, 4037.09, -29.11, 0.000, 0.000, 0.000, 17:00:40.098
185, 8.45, 39.43, 4568.33, 8.92, 0.000, 0.000, 0.000, 17:00:40.099
186, -18.91, -26.92, 3758.00, -52.74, 0.000, 0.000, 0.000, 17:00:40.100
187, 12.57, -26.82, 3284.06, -18.85, 0.000, 0.000, 0.000, 17:00:40.120
188, 25.60, 30.72, 3956.77, 18.71, 0.000, 0.000, 0.000, 17:00:40.121
189, 9.44, 19.02, 4542.42, 23.98, 0.000, 0.000, 0.000, 17:00:40.129
190, 5.25, -21.60, 3756.56, -22.48, 0.000, 0.000, 0.000, 17:00:40.130
191, 24.90, -66.06, 3300.47, -35.35, 0.000, 0.000, 0.000, 17:00:40.131
192, 24.90, -12.02, 3999.17, -21.10, 0.000, 0.000, 0.000, 17:00:40.131
193, 26.05, 19.97, 4590.88, 20.28, 0.000, 0.000, 0.000, 17:00:40.143
194, 5.56, -14.12, 3869.58, -41.93, 0.000, 0.000, 0.000, 17:00:40.143
195, 41.03, -51.52, 3327.10, -54.07, 0.000, 0.000, 0.000, 17:00:40.158
196, 47.30, -37.05, 4058.39, -37.37, 0.000, 0.000, 0.000, 17:00:40.158
197, 12.08, 10.01, 4723.33, -36.06, 0.000, 0.000, 0.000, 17:00:40.160
198, 21.55, -44.55, 3910.00, -31.45, 0.000, 0.000, 0.000, 17:00:40.160
199, 32.41, -47.11, 3304.97, -48.43, 0.000, 0.000, 0.000, 17:00:40.173
200, 28.60, -42.16, 4149.06, -47.08, 0.000, 0.000, 0.000, 17:00:40.174
0, -6.47, -20.66, 898.46, -35.07, 0.000, 0.000, 0.000, 17:00:40.175
1, 9.61, -61.89, -19.89, -64.23, 0.000, 0.000, 0.000, 17:00:40.188
2, 28.25, 18.49, -742.13, -17.16, 0.000, 0.000, 0.000, 17:00:40.188
3, 30.31, -21.56, 169.42, -21.25, 0.000, 0.000, 0.000, 17:00:40.202
4, -15.95, -122.20, 998.63, -100.58, 0.000, 0.000, 0.000, 17:00:40.203
5, -9.24, -87.05, 69.03, -99.07, 0.000, 0.000, 0.000, 17:00:40.204
6, -0.60, 27.71, -767.58, -21.39, 0.000, 0.000, 0.000, 17:00:40.204
7, 22.72, -25.90, 170.32, -11.49, 0.000, 0.000, 0.000, 17:00:40.218
8, -8.20, -66.89, 972.90, -75.02, 0.000, 0.000, 0.000, 17:00:40.218
9, -17.49, -78.53, 27.14, -49.07, 0.000, 0.000, 0.000, 17:00:40.232
10, -3.98, 18.26, -698.48, 32.38, 0.000, 0.000, 0.000, 17:00:40.232
11, 31.48, 5.96, 189.92, -25.12, 0.000, 0.000, 0.000, 17:00:40.233
12, 13.43, -64.55, 926.50, -77.11, 0.000, 0.000, 0.000, 17:00:40.233
13, -4.87, -96.44, 46.73, -81.28, 0.000, 0.000, 0.000, 17:00:40.248
14, 22.81, -58.36, -499.64, -67.39, 0.000, 0.000, 0.000, 17:00:40.248
15, 21.91, -2.99, 152.58, -22.11, 0.000, 0.000, 0.000, 17:00:40.262
16, 14.98, 28.36, 634.17, 38.07, 0.000, 0.000, 0.000, 17:00:40.263
17, -0.20, -65.03, -84.15, -44.23, 0.000, 0.000, 0.000, 17:00:40.263
18, 17.81, -81.06, -521.55, -96.25, 0.000, 0.000, 0.000, 17:00:40.263
19, 22.27, -51.78, 192.93, -46.15, 0.000, 0.000, 0.000, 17:00:40.277
20, -11.47, -1.27, 711.57, 0.14, 0.000, 0.000, 0.000, 17:00:40.278
21, -17.40, -88.64, 27.27, -65.88, 0.000, 0.000, 0.000, 17:00:40.292
22, -4.11, -188.15, -418.29, -189.50, 0.000, 0.000, 0.000, 17:00:40.293
23, 3.03, -97.15, 301.65, -85.46, 0.000, 0.000, 0.000, 17:00:40.307
24, -45.44, 20.72, 781.33, -4.53, 0.000, 0.000, 0.000, 17:00:40.308
25, -35.59, -99.01, 100.05, -85.86, 0.000, 0.000, 0.000, 17:00:40.308
26, 20.87, -205.38, -406.31, -197.49, 0.000, 0.000, 0.000, 17:00:40.309
27, 1.76, -91.51, 257.81, -117.57, 0.000, 0.000, 0.000, 17:00:40.322
28, 4.29, -19.20, 761.24, 7.91, 0.000, 0.000, 0.000, 17:00:40.323
29, -11.89, -133.22, 100.73, -123.37, 0.000, 0.000, 0.000, 17:00:40.323
30, 20.23, -183.61, -424.10, -204.16, 0.000, 0.000, 0.000, 17:00:40.323
31, 19.72, -87.24, 255.47, -87.29, 0.000, 0.000, 0.000, 17:00:40.337
32, 1.28, 7.63, 752.97, 0.14, 0.000, 0.000, 0.000, 17:00:40.338
33, 4.70, -135.56, 33.14, -124.99, 0.000, 0.000, 0.000, 17:00:40.352
34, 9.67, -188.40, -454.42, -194.46, 0.000, 0.000, 0.000, 17:00:40.352
35, -10.56, -94.90, 226.98, -81.72, 0.000, 0.000, 0.000, 17:00:40.353
36, -10.46, 15.15, 815.34, 14.54, 0.000, 0.000, 0.000, 17:00:40.353
37, -3.45, -96.82, 61.87, -112.57, 0.000, 0.000, 0.000, 17:00:40.367
38, 36.16, -183.54, -454.08, -207.74, 0.000, 0.000, 0.000, 17:00:40.368
39, 19.43, -72.89, 283.02, -82.54, 0.000, 0.000, 0.000, 17:00:40.382
40, -19.51, 3.50, 788.85, 23.44, 0.000, 0.000, 0.000, 17:00:40.383
41, -41.57, -108.29, 59.62, -91.93, 0.000, 0.000, 0.000, 17:00:40.383
42, 3.77, -242.58, -342.21, -211.10, 0.000, 0.000, 0.000, 17:00:40.383
43, 34.87, -80.79, 280.75, -105.23, 0.000, 0.000, 0.000, 17:00:40.398
44, -23.06, 29.94, 779.30, 50.03, 0.000, 0.000, 0.000, 17:00:40.399
45, -3.57, -75.78, 63.93, -123.01, 0.000, 0.000, 0.000, 17:00:40.413
46, 40.85, -166.26, -386.11, -201.26, 0.000, 0.000, 0.000, 17:00:40.414
47, 21.40, -71.78, 268.88, -46.70, 0.000, 0.000, 0.000, 17:00:40.416
48, 4.68, 71.84, 757.53, 43.52, 0.000, 0.000, 0.000, 17:00:40.417
49, 5.77, -95.02, 79.86, -98.54, 0.000, 0.000, 0.000, 17:00:40.427
50, -3.38, -193.53, -405.64, -218.25, 0.000, 0.000, 0.000, 17:00:40.428
51, 0.81, -85.84, 268.20, -78.06, 0.000, 0.000, 0.000, 17:00:40.442
52, 10.48, 48.68, 761.70, 45.79, 0.000, 0.000, 0.000, 17:00:40.443
53, 19.44, -78.94, 64.31, -110.44, 0.000, 0.000, 0.000, 17:00:40.447
54, 22.29, -171.13, -396.10, -183.55, 0.000, 0.000, 0.000, 17:00:40.447
55, 23.10, -44.35, 271.42, -83.91, 0.000, 0.000, 0.000, 17:00:40.457
56, 3.80, 46.34, 790.86, 52.82, 0.000, 0.000, 0.000, 17:00:40.457
57, -9.47, -90.97, 54.18, -94.14, 0.000, 0.000, 0.000, 17:00:40.472
58, 22.85, -196.97, -389.68, -170.92, 0.000, 0.000, 0.000, 17:00:40.473
59, 12.48, -69.42, 284.89, -49.39, 0.000, 0.000, 0.000, 17:00:40.473
60, 11.52, 32.16, 782.25, 47.37, 0.000, 0.000, 0.000, 17:00:40.474
61, -29.84, -104.83, 43.24, -75.16, 0.000, 0.000, 0.000, 17:00:40.488
62, 9.79, -186.53, -431.14, -172.60, 0.000, 0.000, 0.000, 17:00:40.488
63, 9.62, -69.00, 226.02, -65.23, 0.000, 0.000, 0.000, 17:00:40.502
64, -12.25, 60.94, 732.00, 37.17, 0.000, 0.000, 0.000, 17:00:40.503
65, -24.04, -69.09, 12.78, -90.55, 0.000, 0.000, 0.000, 17:00:40.504
66, 16.55, -169.73, -404.91, -170.04, 0.000, 0.000, 0.000, 17:00:40.504
67, -6.37, -44.94, 246.51, -109.97, 0.000, 0.000, 0.000, 17:00:40.517
68, -12.90, 69.85, 705.30, 40.04, 0.000, 0.000, 0.000, 17:00:40.518
69, -9.80, -63.88, 54.77, -85.36, 0.000, 0.000, 0.000, 17:00:40.532
70, 21.40, -142.02, -458.51, -158.91, 0.000, 0.000, 0.000, 17:00:40.533
71, 29.58, -50.64, 191.30, -30.91, 0.000, 0.000, 0.000, 17:00:40.533
72, -20.61, 64.31, 706.36, 56.65, 0.000, 0.000, 0.000, 17:00:40.534
73, -15.37, -29.06, 17.77, -36.02, 0.000, 0.000, 0.000, 17:00:40.548
74, 28.58, -74.21, -499.23, -71.28, 0.000, 0.000, 0.000, 17:00:40.548
75, 22.02, -17.98, 204.74, -30.31, 0.000, 0.000, 0.000, 17:00:40.563
76, 3.82, 27.43, 702.90, 27.33, 0.000, 0.000, 0.000, 17:00:40.563
77, 14.59, -37.55, -19.03, -22.71, 0.000, 0.000, 0.000, 17:00:40.564
78, 28.82, -43.49, -485.76, -72.34, 0.000, 0.000, 0.000, 17:00:40.564
79, 22.28, -23.95, 192.27, 3.56, 0.000, 0.000, 0.000, 17:00:40.577
80, -12.12, 44.16, 692.86, 50.54, 0.000, 0.000, 0.000, 17:00:40.577
81, -26.69, -12.96, -4.52, -18.60, 0.000, 0.000, 0.000, 17:00:40.592
82, 27.68, -57.08, -474.93, -56.32, 0.000, 0.000, 0.000, 17:00:40.592
83, -9.75, 3.22, 170.42, -6.51, 0.000, 0.000, 0.000, 17:00:40.593
84, 1.15, 51.72, 670.51, 56.26, 0.000, 0.000, 0.000, 17:00:40.593
85, -15.92, -49.29, -38.31, 11.16, 0.000, 0.000, 0.000, 17:00:40.608
86, 13.61, -28.37, -503.58, -75.08, 0.000, 0.000, 0.000, 17:00:40.608
87, 16.17, 7.59, 171.94, -7.66, 0.000, 0.000, 0.000, 17:00:40.625
88, -10.55, 54.91, 671.63, 57.87, 0.000, 0.000, 0.000, 17:00:40.625
89, -19.92, -38.98, -26.75, -27.10, 0.000, 0.000, 0.000, 17:00:40.626
90, 19.08, -38.58, -458.72, -63.65, 0.000, 0.000, 0.000, 17:00:40.626
91, -1.11, 2.13, 167.44, -11.81, 0.000, 0.000, 0.000, 17:00:40.637
92, -12.75, 83.22, 659.91, 60.02, 0.000, 0.000, 0.000, 17:00:40.637
93, -5.01, -3.86, -48.78, -25.27, 0.000, 0.000, 0.000, 17:00:40.653
94, 28.12, -42.93, -486.88, -25.87, 0.000, 0.000, 0.000, 17:00:40.653
95, -0.20, 6.39, 133.75, 2.80, 0.000, 0.000, 0.000, 17:00:40.653
96, -6.59, 65.29, 628.98, 62.64, 0.000, 0.000, 0.000, 17:00:40.653
97, -14.96, -22.92, -10.13, -30.20, 0.000, 0.000, 0.000, 17:00:40.667
98, 30.43, -51.29, -506.01, -31.97, 0.000, 0.000, 0.000, 17:00:40.668
99, 2.55, 21.77, 182.28, -0.88, 0.000, 0.000, 0.000, 17:00:40.682
100, -19.12, 93.85, 668.51, 66.09, 0.000, 0.000, 0.000, 17:00:40.683
101, -11.29, -0.24, -61.58, -7.61, 0.000, 0.000, 0.000, 17:00:40.684
102, 26.04, 1.50, -520.30, 1.91, 0.000, 0.000, 0.000, 17:00:40.685
103, 25.29, 32.77, 76.17, 34.18, 0.000, 0.000, 0.000, 17:00:40.697
104, -1.27, 85.12, 635.12, 72.28, 0.000, 0.000, 0.000, 17:00:40.697
105, -7.67, 39.73, -174.68, 76.58, 0.000, 0.000, 0.000, 17:00:40.713
106, 34.52, 70.62, -779.32, 49.32, 0.000, 0.000, 0.000, 17:00:40.714
107, 28.49, 46.46, -32.89, 68.80, 0.000, 0.000, 0.000, 17:00:40.714
108, 27.72, 99.27, 576.36, 83.22, 0.000, 0.000, 0.000, 17:00:40.714
109, 36.21, 47.38, -153.02, 31.00, 0.000, 0.000, 0.000, 17:00:40.728
110, 43.17, 65.52, -756.60, 59.61, 0.000, 0.000, 0.000, 17:00:40.728
111, 32.28, 119.85, -78.35, 121.57, 0.000, 0.000, 0.000, 17:00:40.742
112, 12.31, 118.95, 507.97, 125.04, 0.000, 0.000, 0.000, 17:00:40.743
113, 5.88, 35.51, -170.08, 55.72, 0.000, 0.000, 0.000, 17:00:40.745
114, 28.29, -9.99, -559.38, -34.25, 0.000, 0.000, 0.000, 17:00:40.745
115, 14.38, 53.13, 121.99, 52.11, 0.000, 0.000, 0.000, 17:00:40.757
116, -2.69, 94.90, 643.58, 106.53, 0.000, 0.000, 0.000, 17:00:40.757
117, -24.59, -4.53, -29.21, -18.86, 0.000, 0.000, 0.000, 17:00:40.772
118, 10.19, -58.05, -421.31, -65.19, 0.000, 0.000, 0.000, 17:00:40.773
119, 11.04, 32.14, 103.82, 43.29, 0.000, 0.000, 0.000, 17:00:40.773
120, -11.23, 111.38, 502.31, 99.64, 0.000, 0.000, 0.000, 17:00:40.774
121, -28.45, 78.68, -222.37, 61.60, 0.000, 0.000, 0.000, 17:00:40.787
122, 32.24, 40.81, -683.60, 21.18, 0.000, 0.000, 0.000, 17:00:40.788
123, 37.12, -39.23, -663.67, -31.91, 0.000, 0.000, 0.000, 17:00:40.802
124, 5.29, 86.23, -250.65, 78.11, 0.000, 0.000, 0.000, 17:00:40.803
125, -9.26, 77.52, -1219.82, 26.56, 0.000, 0.000, 0.000, 17:00:40.803
126, 35.54, 71.89, -1834.39, 94.49, 0.000, 0.000, 0.000, 17:00:40.804
127, 3.91, 81.19, -964.64, 83.74, 0.000, 0.000, 0.000, 17:00:40.817
128, 3.50, 103.72, -345.43, 72.02, 0.000, 0.000, 0.000, 17:00:40.818
129, -12.06, 50.91, -1233.36, 60.92, 0.000, 0.000, 0.000, 17:00:40.832
130, 22.03, 63.57, -1793.24, 67.41, 0.000, 0.000, 0.000, 17:00:40.832
131, 16.75, 68.41, -891.64, 66.34, 0.000, 0.000, 0.000, 17:00:40.833
132, -11.24, 53.20, -262.91, 12.60, 0.000, 0.000, 0.000, 17:00:40.833
133, 0.93, 33.38, -1234.99, 36.17, 0.000, 0.000, 0.000, 17:00:40.847
134, 41.15, 72.49, -1750.90, 66.30, 0.000, 0.000, 0.000, 17:00:40.848
135, 27.77, 76.35, -900.55, 81.03, 0.000, 0.000, 0.000, 17:00:40.862
136, -6.53, 56.79, -220.61, 37.28, 0.000, 0.000, 0.000, 17:00:40.862
137, -0.07, 45.24, -1191.44, 52.91, 0.000, 0.000, 0.000, 17:00:40.863
138, 49.39, 47.37, -1762.73, 58.26, 0.000, 0.000, 0.000, 17:00:40.863
139, 37.46, 48.12, -894.48, 55.04, 0.000, 0.000, 0.000, 17:00:40.878
140, -4.16, 55.97, -265.67, 48.54, 0.000, 0.000, 0.000, 17:00:40.878
141, -31.49, 14.54, -1144.79, 21.80, 0.000, 0.000, 0.000, 17:00:40.892
142, 7.50, 56.04, -1702.55, 45.82, 0.000, 0.000, 0.000, 17:00:40.892
143, 25.19, 46.21, -905.70, 91.79, 0.000, 0.000, 0.000, 17:00:40.893
144, -1.92, 79.90, -248.17, 57.51, 0.000, 0.000, 0.000, 17:00:40.894
145, 4.05, 14.82, -1111.62, 18.91, 0.000, 0.000, 0.000, 17:00:40.913
146, 24.37, 29.80, -1697.65, 40.67, 0.000, 0.000, 0.000, 17:00:40.913
147, 22.16, 46.22, -885.13, 42.55, 0.000, 0.000, 0.000, 17:00:40.923
148, 13.66, 43.99, -200.76, 75.21, 0.000, 0.000, 0.000, 17:00:40.923
149, -7.52, 49.59, -1150.55, 37.89, 0.000, 0.000, 0.000, 17:00:40.924
150, 48.72, 31.91, -1698.66, 78.26, 0.000, 0.000, 0.000, 17:00:40.925
151, 29.78, 50.24, -842.57, 44.85, 0.000, 0.000, 0.000, 17:00:40.940
152, -13.17, 49.02, -267.91, 62.97, 0.000, 0.000, 0.000, 17:00:40.940
153, 0.18, 24.48, -1149.68, 17.61, 0.000, 0.000, 0.000, 17:00:40.952
154, 25.54, 37.57, -1713.35, 15.38, 0.000, 0.000, 0.000, 17:00:40.953
155, 18.51, 57.20, -881.69, 32.36, 0.000, 0.000, 0.000, 17:00:40.954
156, 5.19, 29.01, -215.78, 50.46, 0.000, 0.000, 0.000, 17:00:40.954
157, 1.27, 2.25, -1141.70, 2.75, 0.000, 0.000, 0.000, 17:00:40.968
158, 47.74, 0.51, -1750.97, 26.84, 0.000, 0.000, 0.000, 17:00:40.968
159, 24.67, 5.90, -841.89, 44.70, 0.000, 0.000, 0.000, 17:00:40.983
160, -9.92, 27.18, -224.63, 38.38, 0.000, 0.000, 0.000, 17:00:40.983
161, -3.39, 14.61, -1179.54, 3.75, 0.000, 0.000, 0.000, 17:00:40.990
162, 41.34, 58.08, -1724.00, 41.55, 0.000, 0.000, 0.000, 17:00:40.990
163, 45.15, 37.38, -877.83, 24.55, 0.000, 0.000, 0.000, 17:00:41.002
164, 13.95, 74.71, -271.23, 38.81, 0.000, 0.000, 0.000, 17:00:41.003
165, -11.55, 23.19, -1178.12, 47.10, 0.000, 0.000, 0.000, 17:00:41.016
166, 43.60, 41.74, -1726.35, 25.32, 0.000, 0.000, 0.000, 17:00:41.016
167, 19.87, 39.83, -884.63, 50.34, 0.000, 0.000, 0.000, 17:00:41.018
168, 15.42, 56.04, -222.77, 57.07, 0.000, 0.000, 0.000, 17:00:41.018
169, -5.61, 30.01, -1115.31, 44.96, 0.000, 0.000, 0.000, 17:00:41.028
170, 4.70, 63.99, -1704.64, 61.79, 0.000, 0.000, 0.000, 17:00:41.028
171, 25.52, 53.87, -875.40, 49.46, 0.000, 0.000, 0.000, 17:00:41.044
172, 6.06, 45.57, -233.11, 28.57, 0.000, 0.000, 0.000, 17:00:41.045
173, -9.75, 32.46, -1076.50, 22.12, 0.000, 0.000, 0.000, 17:00:41.045
174, 33.00, 44.66, -1731.37, 32.17, 0.000, 0.000, 0.000, 17:00:41.045
175, 32.69, 33.90, -920.43, 61.18, 0.000, 0.000, 0.000, 17:00:41.057
176, 4.49, 50.45, -232.87, 10.14, 0.000, 0.000, 0.000, 17:00:41.058
177, -3.20, 17.75, -1156.29, 17.87, 0.000, 0.000, 0.000, 17:00:41.073
178, 31.91, 38.71, -1722.60, 31.65, 0.000, 0.000, 0.000, 17:00:41.073
179, 23.35, 39.73, -912.37, -0.32, 0.000, 0.000, 0.000, 17:00:41.073
180, 14.66, 64.56, -225.55, 33.71, 0.000, 0.000, 0.000, 17:00:41.074
181, 0.64, 34.41, -1143.14, 12.38, 0.000, 0.000, 0.000, 17:00:41.087
182, 30.25, 25.96, -1725.17, 21.01, 0.000, 0.000, 0.000, 17:00:41.088
183, 12.68, 42.06, -893.65, -3.83, 0.000, 0.000, 0.000, 17:00:41.102
184, 4.62, 38.55, -179.20, 50.56, 0.000, 0.000, 0.000, 17:00:41.103
185, -13.13, 3.38, -1133.45, 18.98, 0.000, 0.000, 0.000, 17:00:41.105
186, 27.41, 28.04, -1738.84, 41.94, 0.000, 0.000, 0.000, 17:00:41.105
187, 22.01, 64.18, -865.57, 47.55, 0.000, 0.000, 0.000, 17:00:41.118
188, -7.73, 40.38, -231.13, 57.69, 0.000, 0.000, 0.000, 17:00:41.118
189, -0.59, 25.94, -1118.26, 34.47, 0.000, 0.000, 0.000, 17:00:41.132
190, 37.86, 48.85, -1696.73, 26.27, 0.000, 0.000, 0.000, 17:00:41.132
191, 7.98, 56.79, -857.60, 1.10, 0.000, 0.000, 0.000, 17:00:41.133
192, -3.36, 24.29, -196.17, 25.66, 0.000, 0.000, 0.000, 17:00:41.133
193, -4.41, 45.83, -1095.25, -1.52, 0.000, 0.000, 0.000, 17:00:41.148
194, 18.43, 20.26, -1703.32, 20.40, 0.000, 0.000, 0.000, 17:00:41.148
195, 12.22, 33.21, -861.17, 45.69, 0.000, 0.000, 0.000, 17:00:41.162
196, -19.26, 97.06, -196.60, 76.34, 0.000, 0.000, 0.000, 17:00:41.162
197, -26.64, 57.85, -293.21, 59.92, 0.000, 0.000, 0.000, 17:00:41.163
198, 29.13, 77.47, -814.28, 101.50, 0.000, 0.000, 0.000, 17:00:41.163
199, 3.61, 93.27, -14.28, 96.50, 0.000, 0.000, 0.000, 17:00:41.177
200, -8.50, 106.57, 575.11, 127.36, 0.000, 0.000, 0.000, 17:00:41.178
0, -29.10, 76.49, -325.55, 54.02, 0.000, 0.000, 0.000, 17:00:41.192
1, 14.04, 75.27, -836.41, 73.68, 0.000, 0.000, 0.000, 17:00:41.193
2, 21.00, 108.04, -77.08, 96.08, 0.000, 0.000, 0.000, 17:00:41.193
3, -10.69, 62.34, 453.44, 380.77, 0.000, 0.000, 0.000, 17:00:41.207
4, -9.19, -40.94, -336.35, 308.23, 0.000, 0.000, 0.000, 17:00:41.207
5, 40.31, 92.33, -915.00, 80.17, 0.000, 0.000, 0.000, 17:00:41.207
6, 27.86, 140.06, -287.80, 163.10, 0.000, 0.000, 0.000, 17:00:41.207
7, 3.90, 248.38, 273.26, 231.80, 0.000, 0.000, 0.000, 17:00:41.222
8, -8.70, 138.17, -553.13, 132.68, 0.000, 0.000, 0.000, 17:00:41.222
9, 44.75, 75.25, -901.26, 50.02, 0.000, 0.000, 0.000, 17:00:41.237
10, -0.84, 101.12, -192.25, 118.28, 0.000, 0.000, 0.000, 17:00:41.237
11, -1.43, 111.37, 385.36, 101.97, 0.000, 0.000, 0.000, 17:00:41.238
12, 10.46, 85.35, -351.86, 65.66, 0.000, 0.000, 0.000, 17:00:41.238
13, 37.38, 43.28, -844.80, 58.00, 0.000, 0.000, 0.000, 17:00:41.252
14, 21.46, 41.57, 69.10, 0.28, 0.000, 0.000, 0.000, 17:00:41.252
15, -13.98, 8.17, 705.71, -2.48, 0.000, 0.000, 0.000, 17:00:41.267
16, -8.16, 45.43, 632.10, 54.48, 0.000, 0.000, 0.000, 17:00:41.267
17, 22.11, 41.48, -10.08, 56.94, 0.000, 0.000, 0.000, 17:00:41.268
18, 33.80, 26.24, 947.63, 2.83, 0.000, 0.000, 0.000, 17:00:41.268
19, 48.58, 29.70, 1704.99, -10.44, 0.000, 0.000, 0.000, 17:00:41.281
20, 6.89, 2.62, 788.80, -14.88, 0.000, 0.000, 0.000, 17:00:41.282
21, 33.31, 16.34, 229.56, -2.31, 0.000, 0.000, 0.000, 17:00:41.298
22, 16.61, -2.59, 1174.99, -36.03, 0.000, 0.000, 0.000, 17:00:41.298
23, -7.17, -76.35, 1921.17, -65.70, 0.000, 0.000, 0.000, 17:00:41.299
24, -9.73, -47.34, 1824.22, -83.42, 0.000, 0.000, 0.000, 17:00:41.299
25, 28.20, 31.21, 1139.94, 14.75, 0.000, 0.000, 0.000, 17:00:41.312
26, 48.38, 1.32, 2050.55, -13.53, 0.000, 0.000, 0.000, 17:00:41.313
27, 39.59, -32.52, 2869.37, -61.65, 0.000, 0.000, 0.000, 17:00:41.327
28, 2.70, -29.10, 2804.64, -37.11, 0.000, 0.000, 0.000, 17:00:41.327
29, 34.94, 24.53, 2120.68, 49.19, 0.000, 0.000, 0.000, 17:00:41.328
30, 11.49, -4.91, 2933.34, -16.52, 0.000, 0.000, 0.000, 17:00:41.328
31, 3.73, -31.77, 3775.94, -125.22, 0.000, 0.000, 0.000, 17:00:41.342
32, -15.31, -16.27, 2856.15, -57.68, 0.000, 0.000, 0.000, 17:00:41.342
33, 12.89, 45.39, 2198.16, 33.27, 0.000, 0.000, 0.000, 17:00:41.357
34, 17.19, -65.27, 3175.00, -39.12, 0.000, 0.000, 0.000, 17:00:41.357
35, -21.75, -127.18, 4026.58, -106.61, 0.000, 0.000, 0.000, 17:00:41.357
36, -29.96, -80.54, 3919.73, -59.85, 0.000, 0.000, 0.000, 17:00:41.357
37, -30.59, 8.85, 3112.58, 7.36, 0.000, 0.000, 0.000, 17:00:41.372
38, -34.41, -11.46, 4065.28, -4.79, 0.000, 0.000, 0.000, 17:00:41.372
39, -35.99, -69.43, 4872.63, -65.42, 0.000, 0.000, 0.000, 17:00:41.388
40, -32.48, 10.41, 4678.52, -16.75, 0.000, 0.000, 0.000, 17:00:41.388
41, 29.52, 76.39, 3905.21, 97.82, 0.000, 0.000, 0.000, 17:00:41.389
42, -1.36, -16.94, 4083.45, -20.75, 0.000, 0.000, 0.000, 17:00:41.389
43, -20.63, -70.64, 4944.09, -82.95, 0.000, 0.000, 0.000, 17:00:41.402
44, -11.89, -17.21, 4832.66, -56.97, 0.000, 0.000, 0.000, 17:00:41.403
45, 27.86, 72.37, 4043.54, 21.12, 0.000, 0.000, 0.000, 17:00:41.417
46, 19.36, 19.76, 4977.38, 4.26, 0.000, 0.000, 0.000, 17:00:41.417
47, 7.92, -66.99, 5818.76, -71.82, 0.000, 0.000, 0.000, 17:00:41.418
48, 0.98, -14.30, 5748.15, -23.71, 0.000, 0.000, 0.000, 17:00:41.418
49, 51.77, 33.33, 4991.24, 35.98, 0.000, 0.000, 0.000, 17:00:41.433
50, 25.17, -21.82, 5026.50, -7.81, 0.000, 0.000, 0.000, 17:00:41.433
51, 27.78, -53.88, 5794.62, -56.80, 0.000, 0.000, 0.000, 17:00:41.447
52, 15.05, -21.53, 5762.02, -29.43, 0.000, 0.000, 0.000, 17:00:41.447
53, 44.97, 64.09, 4988.82, 55.91, 0.000, 0.000, 0.000, 17:00:41.448
54, 46.26, 13.59, 5022.34, 8.35, 0.000, 0.000, 0.000, 17:00:41.448
55, 19.77, -91.45, 5775.44, -24.06, 0.000, 0.000, 0.000, 17:00:41.463
56, 20.55, -17.76, 5696.61, -9.13, 0.000, 0.000, 0.000, 17:00:41.464
57, 43.88, 75.09, 5008.33, 75.62, 0.000, 0.000, 0.000, 17:00:41.478
58, 23.39, -1.48, 5069.99, 8.06, 0.000, 0.000, 0.000, 17:00:41.478
59, -1.62, -47.01, 5862.96, -39.72, 0.000, 0.000, 0.000, 17:00:41.480
60, -30.72, -27.87, 5762.79, -39.16, 0.000, 0.000, 0.000, 17:00:41.480
61, 13.79, 61.65, 5014.49, 65.03, 0.000, 0.000, 0.000, 17:00:41.492
62, 11.06, -31.68, 5059.71, 0.24, 0.000, 0.000, 0.000, 17:00:41.492
63, -28.86, -45.89, 5877.28, -27.30, 0.000, 0.000, 0.000, 17:00:41.507
64, -18.96, -7.29, 5754.41, -5.80, 0.000, 0.000, 0.000, 17:00:41.507
65, 6.69, 60.71, 5030.06, 45.54, 0.000, 0.000, 0.000, 17:00:41.507
66, -12.74, 31.09, 5033.16, 15.59, 0.000, 0.000, 0.000, 17:00:41.507
67, -12.50, -55.69, 5894.36, -50.92, 0.000, 0.000, 0.000, 17:00:41.522
68, -15.83, 2.04, 5751.93, -24.73, 0.000, 0.000, 0.000, 17:00:41.522
69, 11.69, 68.71, 5054.13, 45.46, 0.000, 0.000, 0.000, 17:00:41.537
70, 6.00, -20.89, 5127.68, -52.00, 0.000, 0.000, 0.000, 17:00:41.537
71, -22.73, -60.01, 5887.04, -84.06, 0.000, 0.000, 0.000, 17:00:41.538
72, 6.02, -36.68, 5810.32, -45.36, 0.000, 0.000, 0.000, 17:00:41.538
73, 25.75, 25.64, 5081.95, 34.14, 0.000, 0.000, 0.000, 17:00:41.551
74, 4.99, -21.27, 6059.66, -27.79, 0.000, 0.000, 0.000, 17:00:41.552
75, -8.04, -48.05, 6807.53, -72.19, 0.000, 0.000, 0.000, 17:00:41.567
76, -14.05, -13.72, 6785.75, -30.97, 0.000, 0.000, 0.000, 17:00:41.567
77, -0.71, -2.98, 6037.58, -12.29, 0.000, 0.000, 0.000, 17:00:41.568
78, 0.46, 5.69, 6984.93, -20.41, 0.000, 0.000, 0.000, 17:00:41.568
79, -18.57, -22.33, 7732.05, -21.35, 0.000, 0.000, 0.000, 17:00:41.581
80, 2.05, -49.60, 6765.53, -48.20, 0.000, 0.000, 0.000, 17:00:41.582
81, 23.08, 9.11, 6133.65, 30.22, 0.000, 0.000, 0.000, 17:00:41.598
82, 4.21, -16.94, 7082.20, -22.79, 0.000, 0.000, 0.000, 17:00:41.598
83, -13.27, -54.21, 7728.77, -51.70, 0.000, 0.000, 0.000, 17:00:41.599
84, -40.28, -85.34, 6802.21, -68.26, 0.000, 0.000, 0.000, 17:00:41.599
85, -2.14, -37.35, 6225.27, -20.43, 0.000, 0.000, 0.000, 17:00:41.612
86, 13.68, -30.16, 7092.43, -38.28, 0.000, 0.000, 0.000, 17:00:41.613
87, 10.21, -28.67, 7816.36, -60.05, 0.000, 0.000, 0.000, 17:00:41.627
88, -13.73, -72.05, 6849.62, -64.68, 0.000, 0.000, 0.000, 17:00:41.627
89, 31.76, -18.35, 6227.32, 3.61, 0.000, 0.000, 0.000, 17:00:41.628
90, -33.94, -36.72, 7045.44, -52.47, 0.000, 0.000, 0.000, 17:00:41.628
91, 12.84, -66.51, 7714.62, -34.47, 0.000, 0.000, 0.000, 17:00:41.642
92, 5.48, -34.40, 6828.40, -36.25, 0.000, 0.000, 0.000, 17:00:41.642
93, 52.96, -8.38, 6210.46, 1.21, 0.000, 0.000, 0.000, 17:00:41.657
94, -3.01, -19.50, 7084.56, -4.43, 0.000, 0.000, 0.000, 17:00:41.657
95, -19.04, -23.84, 7763.69, -19.09, 0.000, 0.000, 0.000, 17:00:41.657
96, -2.06, -47.33, 6817.20, -74.87, 0.000, 0.000, 0.000, 17:00:41.657
97, 17.72, -40.06, 6160.09, -45.87, 0.000, 0.000, 0.000, 17:00:41.672
98, 28.78, 5.61, 7110.80, -72.28, 0.000, 0.000, 0.000, 17:00:41.672
99, 19.15, -13.93, 7831.41, -45.02, 0.000, 0.000, 0.000, 17:00:41.687
100, 8.73, -74.79, 6888.78, -65.74, 0.000, 0.000, 0.000, 17:00:41.687
101, 45.39, -31.40, 6283.05, -7.22, 0.000, 0.000, 0.000, 17:00:41.687
102, 6.93, -17.71, 7099.48, -10.20, 0.000, 0.000, 0.000, 17:00:41.687
103, 8.53, -31.54, 7765.08, -12.40, 0.000, 0.000, 0.000, 17:00:41.702
104, -18.45, -70.38, 6835.92, -52.80, 0.000, 0.000, 0.000, 17:00:41.703
105, 51.45, 9.40, 6269.58, -10.72, 0.000, 0.000, 0.000, 17:00:41.717
106, -6.88, -13.41, 7165.31, -3.14, 0.000, 0.000, 0.000, 17:00:41.717
107, 11.88, 9.11, 7752.49, -5.07, 0.000, 0.000, 0.000, 17:00:41.717
108, 11.23, -19.12, 6810.26, -5.56, 0.000, 0.000, 0.000, 17:00:41.718
109, 23.49, -95.05, 6450.94, -110.64, 0.000, 0.000, 0.000, 17:00:41.732
110, 1.19, -59.66, 7257.55, -78.33, 0.000, 0.000, 0.000, 17:00:41.733
111, -3.17, -43.09, 7859.82, -40.36, 0.000, 0.000, 0.000, 17:00:41.747
112, -11.69, -11.38, 7853.72, -50.91, 0.000, 0.000, 0.000, 17:00:41.747
113, 33.57, -14.51, 7259.05, 16.23, 0.000, 0.000, 0.000, 17:00:41.747
114, 25.34, 23.55, 7939.34, 76.27, 0.000, 0.000, 0.000, 17:00:41.747
115, 12.89, 85.01, 8500.33, 18.35, 0.000, 0.000, 0.000, 17:00:41.762
116, 11.47, 4.58, 7669.62, 18.89, 0.000, 0.000, 0.000, 17:00:41.763
117, 39.66, 12.40, 7196.34, 25.15, 0.000, 0.000, 0.000, 17:00:41.776
118, 11.77, 22.16, 8070.71, -9.11, 0.000, 0.000, 0.000, 17:00:41.777
119, 3.58, 9.84, 8639.73, 32.84, 0.000, 0.000, 0.000, 17:00:41.777
120, -22.08, -47.26, 7736.84, -6.64, 0.000, 0.000, 0.000, 17:00:41.777
121, 22.37, 11.77, 7265.69, 1.98, 0.000, 0.000, 0.000, 17:00:41.793
122, 12.40, 40.29, 8078.80, 20.81, 0.000, 0.000, 0.000, 17:00:41.793
123, 1.49, 30.06, 8678.90, -14.00, 0.000, 0.000, 0.000, 17:00:41.807
124, -14.12, -32.22, 7802.77, -35.86, 0.000, 0.000, 0.000, 17:00:41.808
